TITLE	
DATA TYPE	
ORIGIN	JASCO
OWNER	
DATE	19/08/29
TIME	13:38:22
SPECTROMETER/DATA SYSTEM	JASCO Corp., V-570, Rev. 1.00
RESOLUTION	
DELTAX	-1
XUNITS	NANOMETERS
YUNITS	ABSORBANCE
FIRSTX	840.0000
LASTX	190.0000
NPOINTS	651
FIRSTY	-0.00850
MAXY	1.08995
MINY	-0.00894
XYDATA
840.0000	-0.0085
839.0000	-0.00855
838.0000	-0.00869
837.0000	-0.00866
836.0000	-0.00873
835.0000	-0.00877
834.0000	-0.00875
833.0000	-0.00886
832.0000	-0.00886
831.0000	-0.0089
830.0000	-0.00877
829.0000	-0.00872
828.0000	-0.00868
827.0000	-0.00872
826.0000	-0.00875
825.0000	-0.00891
824.0000	-0.00879
823.0000	-0.00879
822.0000	-0.00865
821.0000	-0.00862
820.0000	-0.00861
819.0000	-0.00865
818.0000	-0.00873
817.0000	-0.00875
816.0000	-0.00875
815.0000	-0.00872
814.0000	-0.00878
813.0000	-0.00881
812.0000	-0.00885
811.0000	-0.00894
810.0000	-0.00884
809.0000	-0.00886
808.0000	-0.00882
807.0000	-0.00879
806.0000	-0.00865
805.0000	-0.00852
804.0000	-0.00851
803.0000	-0.00863
802.0000	-0.00872
801.0000	-0.00873
800.0000	-0.00866
799.0000	-0.00864
798.0000	-0.00858
797.0000	-0.0085
796.0000	-0.00843
795.0000	-0.00848
794.0000	-0.00862
793.0000	-0.00863
792.0000	-0.00859
791.0000	-0.00852
790.0000	-0.00844
789.0000	-0.00846
788.0000	-0.00835
787.0000	-0.00843
786.0000	-0.00829
785.0000	-0.00832
784.0000	-0.00823
783.0000	-0.0082
782.0000	-0.00819
781.0000	-0.00809
780.0000	-0.00796
779.0000	-0.00797
778.0000	-0.00794
777.0000	-0.00787
776.0000	-0.00782
775.0000	-0.00779
774.0000	-0.00788
773.0000	-0.00778
772.0000	-0.00773
771.0000	-0.00768
770.0000	-0.00755
769.0000	-0.0075
768.0000	-0.00736
767.0000	-0.00742
766.0000	-0.0074
765.0000	-0.00738
764.0000	-0.00726
763.0000	-0.00723
762.0000	-0.00722
761.0000	-0.00709
760.0000	-0.00689
759.0000	-0.00675
758.0000	-0.00668
757.0000	-0.00653
756.0000	-0.00643
755.0000	-0.00621
754.0000	-0.00614
753.0000	-0.00606
752.0000	-0.00592
751.0000	-0.00589
750.0000	-0.00572
749.0000	-0.00559
748.0000	-0.00542
747.0000	-0.0053
746.0000	-0.00518
745.0000	-0.00502
744.0000	-0.00479
743.0000	-0.00457
742.0000	-0.00434
741.0000	-0.00411
740.0000	-0.00371
739.0000	-0.00339
738.0000	-0.00304
737.0000	-0.00275
736.0000	-0.00247
735.0000	-0.00217
734.0000	-0.00184
733.0000	-0.00143
732.0000	-0.00102
731.0000	-5.9E-04
730.0000	-2.9E-04
729.0000	1.7E-04
728.0000	6.8E-04
727.0000	0.00127
726.0000	0.00192
725.0000	0.00257
724.0000	0.00328
723.0000	0.00397
722.0000	0.00489
721.0000	0.00593
720.0000	0.00707
719.0000	0.00829
718.0000	0.00955
717.0000	0.01099
716.0000	0.01257
715.0000	0.0143
714.0000	0.01623
713.0000	0.01839
712.0000	0.02078
711.0000	0.02346
710.0000	0.02643
709.0000	0.02976
708.0000	0.0335
707.0000	0.03768
706.0000	0.04236
705.0000	0.04756
704.0000	0.05341
703.0000	0.05996
702.0000	0.06728
701.0000	0.07542
700.0000	0.0845
699.0000	0.09462
698.0000	0.10593
697.0000	0.11855
696.0000	0.13244
695.0000	0.14778
694.0000	0.16466
693.0000	0.18337
692.0000	0.20393
691.0000	0.22666
690.0000	0.25161
689.0000	0.27883
688.0000	0.30836
687.0000	0.34037
686.0000	0.37492
685.0000	0.41191
684.0000	0.45113
683.0000	0.49252
682.0000	0.53571
681.0000	0.58054
680.0000	0.62685
679.0000	0.67381
678.0000	0.7208
677.0000	0.76682
676.0000	0.81138
675.0000	0.85421
674.0000	0.89459
673.0000	0.93192
672.0000	0.96582
671.0000	0.9958
670.0000	1.02169
669.0000	1.04326
668.0000	1.06057
667.0000	1.0737
666.0000	1.08274
665.0000	1.08806
664.0000	1.08995
663.0000	1.08888
662.0000	1.08506
661.0000	1.07896
660.0000	1.07083
659.0000	1.06108
658.0000	1.04987
657.0000	1.03741
656.0000	1.02401
655.0000	1.00964
654.0000	0.99445
653.0000	0.97839
652.0000	0.9617
651.0000	0.94442
650.0000	0.9266
649.0000	0.90842
648.0000	0.88988
647.0000	0.87122
646.0000	0.85245
645.0000	0.83376
644.0000	0.81524
643.0000	0.79704
642.0000	0.77936
641.0000	0.76225
640.0000	0.74588
639.0000	0.73027
638.0000	0.71546
637.0000	0.7016
636.0000	0.68856
635.0000	0.67649
634.0000	0.66534
633.0000	0.65519
632.0000	0.64596
631.0000	0.63759
630.0000	0.6302
629.0000	0.62372
628.0000	0.61806
627.0000	0.6132
626.0000	0.60915
625.0000	0.60585
624.0000	0.60316
623.0000	0.60092
622.0000	0.5991
621.0000	0.5976
620.0000	0.59642
619.0000	0.5953
618.0000	0.59416
617.0000	0.59276
616.0000	0.59109
615.0000	0.58895
614.0000	0.58621
613.0000	0.58285
612.0000	0.57869
611.0000	0.57369
610.0000	0.56776
609.0000	0.56093
608.0000	0.55316
607.0000	0.5445
606.0000	0.53509
605.0000	0.5248
604.0000	0.51382
603.0000	0.50218
602.0000	0.49002
601.0000	0.47743
600.0000	0.46449
599.0000	0.45135
598.0000	0.43814
597.0000	0.4248
596.0000	0.41154
595.0000	0.39836
594.0000	0.38543
593.0000	0.37261
592.0000	0.36011
591.0000	0.34789
590.0000	0.336
589.0000	0.32438
588.0000	0.31317
587.0000	0.30233
586.0000	0.29178
585.0000	0.28167
584.0000	0.27183
583.0000	0.26247
582.0000	0.25336
581.0000	0.24477
580.0000	0.23637
579.0000	0.22844
578.0000	0.22082
577.0000	0.21364
576.0000	0.20678
575.0000	0.20027
574.0000	0.19393
573.0000	0.1879
572.0000	0.18207
571.0000	0.17654
570.0000	0.17116
569.0000	0.1659
568.0000	0.1609
567.0000	0.15604
566.0000	0.15129
565.0000	0.14659
564.0000	0.14207
563.0000	0.1378
562.0000	0.13354
561.0000	0.1294
560.0000	0.12512
559.0000	0.12102
558.0000	0.11697
557.0000	0.11301
556.0000	0.10906
555.0000	0.10521
554.0000	0.10141
553.0000	0.09774
552.0000	0.09415
551.0000	0.09065
550.0000	0.08723
549.0000	0.08393
548.0000	0.0807
547.0000	0.07762
546.0000	0.0746
545.0000	0.07175
544.0000	0.069
543.0000	0.06633
542.0000	0.06391
541.0000	0.06154
540.0000	0.05938
539.0000	0.05728
538.0000	0.0553
537.0000	0.05341
536.0000	0.05155
535.0000	0.0498
534.0000	0.04813
533.0000	0.04658
532.0000	0.04515
531.0000	0.04385
530.0000	0.04267
529.0000	0.04154
528.0000	0.04047
527.0000	0.03952
526.0000	0.03862
525.0000	0.03779
524.0000	0.03698
523.0000	0.03619
522.0000	0.03551
521.0000	0.03491
520.0000	0.03423
519.0000	0.03383
518.0000	0.03353
517.0000	0.03321
516.0000	0.03303
515.0000	0.0327
514.0000	0.03251
513.0000	0.03219
512.0000	0.03204
511.0000	0.03185
510.0000	0.03183
509.0000	0.03177
508.0000	0.03174
507.0000	0.03172
506.0000	0.03168
505.0000	0.0316
504.0000	0.0315
503.0000	0.03136
502.0000	0.03121
501.0000	0.03109
500.0000	0.03089
499.0000	0.03072
498.0000	0.03056
497.0000	0.03032
496.0000	0.03002
495.0000	0.02961
494.0000	0.02918
493.0000	0.02872
492.0000	0.0283
491.0000	0.02782
490.0000	0.02737
489.0000	0.02686
488.0000	0.02637
487.0000	0.02582
486.0000	0.02528
485.0000	0.02471
484.0000	0.02401
483.0000	0.02335
482.0000	0.02273
481.0000	0.02214
480.0000	0.02155
479.0000	0.02091
478.0000	0.02029
477.0000	0.01962
476.0000	0.01897
475.0000	0.01827
474.0000	0.01767
473.0000	0.01709
472.0000	0.01654
471.0000	0.01601
470.0000	0.01541
469.0000	0.01483
468.0000	0.01417
467.0000	0.01363
466.0000	0.013
465.0000	0.01244
464.0000	0.01188
463.0000	0.01134
462.0000	0.01074
461.0000	0.01014
460.0000	0.00958
459.0000	0.00894
458.0000	0.00833
457.0000	0.00776
456.0000	0.00723
455.0000	0.00671
454.0000	0.00609
453.0000	0.00555
452.0000	0.00483
451.0000	0.00433
450.0000	0.00373
449.0000	0.0033
448.0000	0.00282
447.0000	0.00236
446.0000	0.0019
445.0000	0.00139
444.0000	8.9E-04
443.0000	4E-04
442.0000	-6E-05
441.0000	-4.4E-04
440.0000	-8E-04
439.0000	-0.00115
438.0000	-0.00154
437.0000	-0.00192
436.0000	-0.00224
435.0000	-0.00253
434.0000	-0.00283
433.0000	-0.00312
432.0000	-0.00341
431.0000	-0.00374
430.0000	-0.00402
429.0000	-0.00434
428.0000	-0.00456
427.0000	-0.00477
426.0000	-0.00498
425.0000	-0.00519
424.0000	-0.00541
423.0000	-0.00563
422.0000	-0.00579
421.0000	-0.00591
420.0000	-0.00605
419.0000	-0.00608
418.0000	-0.00602
417.0000	-0.006
416.0000	-0.006
415.0000	-0.00585
414.0000	-0.00557
413.0000	-0.00525
412.0000	-0.00495
411.0000	-0.00454
410.0000	-0.00412
409.0000	-0.00366
408.0000	-0.00302
407.0000	-0.00243
406.0000	-0.00183
405.0000	-0.00109
404.0000	-4.3E-04
403.0000	2.7E-04
402.0000	8.2E-04
401.0000	0.00151
400.0000	0.0022
399.0000	0.00282
398.0000	0.00325
397.0000	0.00348
396.0000	0.00371
395.0000	0.00392
394.0000	0.00407
393.0000	0.00405
392.0000	0.00389
391.0000	0.00372
390.0000	0.00353
389.0000	0.00339
388.0000	0.00315
387.0000	0.00297
386.0000	0.00268
385.0000	0.00232
384.0000	0.00204
383.0000	0.00186
382.0000	0.00174
381.0000	0.00163
380.0000	0.00139
379.0000	0.00128
378.0000	0.00112
377.0000	0.00107
376.0000	9.6E-04
375.0000	9.2E-04
374.0000	8.4E-04
373.0000	6.9E-04
372.0000	6.2E-04
371.0000	5.7E-04
370.0000	7E-04
369.0000	8.6E-04
368.0000	0.00104
367.0000	0.00109
366.0000	0.00126
365.0000	0.00151
364.0000	0.00179
363.0000	0.00203
362.0000	0.00243
361.0000	0.00298
360.0000	0.00374
359.0000	0.00438
358.0000	0.00494
357.0000	0.00573
356.0000	0.00654
355.0000	0.00757
354.0000	0.0086
353.0000	0.00969
352.0000	0.01064
351.0000	0.01172
350.0000	0.013
349.0000	0.01447
348.0000	0.01607
347.0000	0.01761
346.0000	0.01946
345.0000	0.0216
344.0000	0.02424
343.0000	0.02694
342.0000	0.03018
341.0000	0.03357
340.0000	0.03918
339.0000	0.04288
338.0000	0.04727
337.0000	0.05278
336.0000	0.05854
335.0000	0.06465
334.0000	0.07057
333.0000	0.07651
332.0000	0.08207
331.0000	0.08716
330.0000	0.09167
329.0000	0.09568
328.0000	0.09895
327.0000	0.10171
326.0000	0.10363
325.0000	0.10532
324.0000	0.10679
323.0000	0.10822
322.0000	0.10981
321.0000	0.1115
320.0000	0.11352
319.0000	0.1157
318.0000	0.11826
317.0000	0.12121
316.0000	0.12451
315.0000	0.12829
314.0000	0.13289
313.0000	0.13871
312.0000	0.14593
311.0000	0.15507
310.0000	0.16626
309.0000	0.18021
308.0000	0.19646
307.0000	0.21579
306.0000	0.23766
305.0000	0.26229
304.0000	0.28934
303.0000	0.31809
302.0000	0.34864
301.0000	0.38048
300.0000	0.41339
299.0000	0.44597
298.0000	0.47767
297.0000	0.5071
296.0000	0.53315
295.0000	0.55475
294.0000	0.57073
293.0000	0.58044
292.0000	0.58316
291.0000	0.57879
290.0000	0.56817
289.0000	0.5524
288.0000	0.53301
287.0000	0.51146
286.0000	0.48903
285.0000	0.46661
284.0000	0.44475
283.0000	0.42306
282.0000	0.40184
281.0000	0.38085
280.0000	0.36039
279.0000	0.34059
278.0000	0.3217
277.0000	0.3039
276.0000	0.28745
275.0000	0.27247
274.0000	0.25885
273.0000	0.24644
272.0000	0.23492
271.0000	0.22411
270.0000	0.21351
269.0000	0.20326
268.0000	0.19314
267.0000	0.18355
266.0000	0.17458
265.0000	0.16644
264.0000	0.15989
263.0000	0.15458
262.0000	0.15087
261.0000	0.1485
260.0000	0.1476
259.0000	0.14826
258.0000	0.15015
257.0000	0.15365
256.0000	0.15865
255.0000	0.16535
254.0000	0.17391
253.0000	0.18443
252.0000	0.19657
251.0000	0.20973
250.0000	0.22296
249.0000	0.2351
248.0000	0.24461
247.0000	0.25016
246.0000	0.25126
245.0000	0.24846
244.0000	0.24226
243.0000	0.23361
242.0000	0.22329
241.0000	0.21196
240.0000	0.20039
239.0000	0.18871
238.0000	0.17713
237.0000	0.16614
236.0000	0.1558
235.0000	0.14647
234.0000	0.13827
233.0000	0.13125
232.0000	0.12547
231.0000	0.12088
230.0000	0.11709
229.0000	0.11408
228.0000	0.11164
227.0000	0.10955
226.0000	0.10774
225.0000	0.10615
224.0000	0.10536
223.0000	0.10504
222.0000	0.10597
221.0000	0.10735
220.0000	0.10957
219.0000	0.11204
218.0000	0.11489
217.0000	0.11797
216.0000	0.12121
215.0000	0.12446
214.0000	0.12801
213.0000	0.13189
212.0000	0.13589
211.0000	0.14007
210.0000	0.14472
209.0000	0.1499
208.0000	0.15577
207.0000	0.16198
206.0000	0.1683
205.0000	0.17503
204.0000	0.18168
203.0000	0.18792
202.0000	0.19333
201.0000	0.19803
200.0000	0.20175
199.0000	0.20467
198.0000	0.20795
197.0000	0.21212
196.0000	0.21698
195.0000	0.22212
194.0000	0.22774
193.0000	0.23306
192.0000	0.23679
191.0000	0.23835
190.0000	0.2351
