TITLE	
DATA TYPE	
ORIGIN	JASCO
OWNER	
DATE	19/09/02
TIME	19:44:47
SPECTROMETER/DATA SYSTEM	JASCO Corp., V-570, Rev. 1.00
RESOLUTION	
DELTAX	-1
XUNITS	NANOMETERS
YUNITS	ABSORBANCE
FIRSTX	840.0000
LASTX	190.0000
NPOINTS	651
FIRSTY	0.01351
MAXY	0.72292
MINY	0.01266
XYDATA
840.0000	0.01351
839.0000	0.01343
838.0000	0.01339
837.0000	0.01342
836.0000	0.01348
835.0000	0.01345
834.0000	0.01344
833.0000	0.01332
832.0000	0.01333
831.0000	0.01324
830.0000	0.01335
829.0000	0.01329
828.0000	0.01341
827.0000	0.01335
826.0000	0.01333
825.0000	0.01329
824.0000	0.01342
823.0000	0.01353
822.0000	0.01348
821.0000	0.0135
820.0000	0.01352
819.0000	0.01355
818.0000	0.01349
817.0000	0.01343
816.0000	0.01343
815.0000	0.01353
814.0000	0.01347
813.0000	0.01349
812.0000	0.01347
811.0000	0.01347
810.0000	0.01337
809.0000	0.01325
808.0000	0.01317
807.0000	0.01317
806.0000	0.01325
805.0000	0.01329
804.0000	0.01329
803.0000	0.01321
802.0000	0.01325
801.0000	0.01311
800.0000	0.01317
799.0000	0.01313
798.0000	0.01314
797.0000	0.01307
796.0000	0.01305
795.0000	0.01299
794.0000	0.01302
793.0000	0.01312
792.0000	0.01317
791.0000	0.01317
790.0000	0.01316
789.0000	0.01304
788.0000	0.01299
787.0000	0.01298
786.0000	0.01295
785.0000	0.01294
784.0000	0.0129
783.0000	0.01281
782.0000	0.01284
781.0000	0.01276
780.0000	0.01282
779.0000	0.01282
778.0000	0.01285
777.0000	0.01282
776.0000	0.01283
775.0000	0.01284
774.0000	0.01272
773.0000	0.01271
772.0000	0.01266
771.0000	0.01275
770.0000	0.01274
769.0000	0.01291
768.0000	0.01288
767.0000	0.01288
766.0000	0.01275
765.0000	0.01274
764.0000	0.01274
763.0000	0.01277
762.0000	0.01282
761.0000	0.01284
760.0000	0.01284
759.0000	0.01274
758.0000	0.01278
757.0000	0.01273
756.0000	0.01289
755.0000	0.0129
754.0000	0.0128
753.0000	0.0128
752.0000	0.01287
751.0000	0.01296
750.0000	0.01302
749.0000	0.01306
748.0000	0.01322
747.0000	0.01334
746.0000	0.01343
745.0000	0.01346
744.0000	0.0135
743.0000	0.01357
742.0000	0.01373
741.0000	0.01381
740.0000	0.01399
739.0000	0.01411
738.0000	0.01417
737.0000	0.01434
736.0000	0.01445
735.0000	0.01463
734.0000	0.01481
733.0000	0.01501
732.0000	0.01531
731.0000	0.01563
730.0000	0.01596
729.0000	0.01621
728.0000	0.01649
727.0000	0.01683
726.0000	0.01718
725.0000	0.01761
724.0000	0.01802
723.0000	0.01849
722.0000	0.01901
721.0000	0.01955
720.0000	0.02022
719.0000	0.02097
718.0000	0.02171
717.0000	0.02252
716.0000	0.02341
715.0000	0.02457
714.0000	0.02582
713.0000	0.02715
712.0000	0.0286
711.0000	0.03029
710.0000	0.03222
709.0000	0.0344
708.0000	0.0368
707.0000	0.03939
706.0000	0.04237
705.0000	0.04566
704.0000	0.04941
703.0000	0.05353
702.0000	0.05815
701.0000	0.06337
700.0000	0.0691
699.0000	0.07546
698.0000	0.08252
697.0000	0.09044
696.0000	0.09928
695.0000	0.10914
694.0000	0.11998
693.0000	0.1319
692.0000	0.14514
691.0000	0.1596
690.0000	0.17552
689.0000	0.19281
688.0000	0.21171
687.0000	0.23214
686.0000	0.25422
685.0000	0.27778
684.0000	0.30278
683.0000	0.32913
682.0000	0.35665
681.0000	0.38516
680.0000	0.41461
679.0000	0.44464
678.0000	0.47469
677.0000	0.50421
676.0000	0.53285
675.0000	0.5604
674.0000	0.58659
673.0000	0.61094
672.0000	0.63325
671.0000	0.65312
670.0000	0.67051
669.0000	0.68525
668.0000	0.69742
667.0000	0.70708
666.0000	0.71432
665.0000	0.71921
664.0000	0.72199
663.0000	0.72292
662.0000	0.72221
661.0000	0.72003
660.0000	0.7166
659.0000	0.71197
658.0000	0.70636
657.0000	0.69994
656.0000	0.69277
655.0000	0.68495
654.0000	0.67652
653.0000	0.66735
652.0000	0.65758
651.0000	0.64731
650.0000	0.63652
649.0000	0.62537
648.0000	0.61386
647.0000	0.60213
646.0000	0.59019
645.0000	0.57831
644.0000	0.56644
643.0000	0.55471
642.0000	0.5432
641.0000	0.532
640.0000	0.52128
639.0000	0.51092
638.0000	0.50114
637.0000	0.49177
636.0000	0.48295
635.0000	0.47451
634.0000	0.46666
633.0000	0.45927
632.0000	0.45254
631.0000	0.44632
630.0000	0.44062
629.0000	0.43543
628.0000	0.43083
627.0000	0.42671
626.0000	0.42312
625.0000	0.41992
624.0000	0.41718
623.0000	0.4148
622.0000	0.41273
621.0000	0.41077
620.0000	0.40898
619.0000	0.40728
618.0000	0.40555
617.0000	0.40377
616.0000	0.40179
615.0000	0.39959
614.0000	0.39709
613.0000	0.3943
612.0000	0.39101
611.0000	0.38736
610.0000	0.38323
609.0000	0.37865
608.0000	0.37363
607.0000	0.36805
606.0000	0.36199
605.0000	0.35551
604.0000	0.3486
603.0000	0.34131
602.0000	0.33372
601.0000	0.32591
600.0000	0.31791
599.0000	0.3098
598.0000	0.3016
597.0000	0.2934
596.0000	0.28516
595.0000	0.27695
594.0000	0.26887
593.0000	0.26091
592.0000	0.25309
591.0000	0.24536
590.0000	0.23775
589.0000	0.23037
588.0000	0.22318
587.0000	0.21617
586.0000	0.20947
585.0000	0.20295
584.0000	0.19669
583.0000	0.1907
582.0000	0.18488
581.0000	0.17936
580.0000	0.17401
579.0000	0.16893
578.0000	0.164
577.0000	0.15928
576.0000	0.15473
575.0000	0.15044
574.0000	0.14634
573.0000	0.14239
572.0000	0.13859
571.0000	0.13496
570.0000	0.13149
569.0000	0.12818
568.0000	0.12499
567.0000	0.12191
566.0000	0.11893
565.0000	0.11596
564.0000	0.11303
563.0000	0.11018
562.0000	0.10742
561.0000	0.10477
560.0000	0.10218
559.0000	0.09955
558.0000	0.09706
557.0000	0.09453
556.0000	0.09215
555.0000	0.08975
554.0000	0.08743
553.0000	0.08514
552.0000	0.08301
551.0000	0.08082
550.0000	0.07867
549.0000	0.07662
548.0000	0.07466
547.0000	0.07279
546.0000	0.071
545.0000	0.06928
544.0000	0.06771
543.0000	0.06611
542.0000	0.06457
541.0000	0.06303
540.0000	0.06164
539.0000	0.06031
538.0000	0.05912
537.0000	0.05806
536.0000	0.05695
535.0000	0.0559
534.0000	0.05492
533.0000	0.05406
532.0000	0.05324
531.0000	0.05239
530.0000	0.05161
529.0000	0.05088
528.0000	0.05025
527.0000	0.04967
526.0000	0.04916
525.0000	0.04871
524.0000	0.0483
523.0000	0.04793
522.0000	0.04758
521.0000	0.04732
520.0000	0.0468
519.0000	0.04646
518.0000	0.04618
517.0000	0.04599
516.0000	0.04589
515.0000	0.04576
514.0000	0.04567
513.0000	0.04553
512.0000	0.04547
511.0000	0.04544
510.0000	0.04545
509.0000	0.04538
508.0000	0.04524
507.0000	0.04518
506.0000	0.04513
505.0000	0.04508
504.0000	0.04498
503.0000	0.04485
502.0000	0.04476
501.0000	0.04464
500.0000	0.04451
499.0000	0.04434
498.0000	0.04418
497.0000	0.04396
496.0000	0.04368
495.0000	0.04342
494.0000	0.04313
493.0000	0.04288
492.0000	0.04258
491.0000	0.04224
490.0000	0.04186
489.0000	0.04144
488.0000	0.04097
487.0000	0.04054
486.0000	0.04007
485.0000	0.03967
484.0000	0.03923
483.0000	0.03879
482.0000	0.03829
481.0000	0.03775
480.0000	0.03723
479.0000	0.03673
478.0000	0.03628
477.0000	0.0358
476.0000	0.03538
475.0000	0.03494
474.0000	0.0345
473.0000	0.03394
472.0000	0.03343
471.0000	0.03286
470.0000	0.03245
469.0000	0.03203
468.0000	0.03159
467.0000	0.03116
466.0000	0.0307
465.0000	0.03024
464.0000	0.02972
463.0000	0.02929
462.0000	0.02879
461.0000	0.0284
460.0000	0.02795
459.0000	0.02752
458.0000	0.02701
457.0000	0.02652
456.0000	0.02607
455.0000	0.02558
454.0000	0.02516
453.0000	0.02475
452.0000	0.02432
451.0000	0.02385
450.0000	0.02343
449.0000	0.02306
448.0000	0.02264
447.0000	0.02224
446.0000	0.02181
445.0000	0.02147
444.0000	0.02115
443.0000	0.02081
442.0000	0.02049
441.0000	0.02013
440.0000	0.01975
439.0000	0.0194
438.0000	0.01906
437.0000	0.01887
436.0000	0.0186
435.0000	0.01839
434.0000	0.01808
433.0000	0.01778
432.0000	0.01749
431.0000	0.01724
430.0000	0.01708
429.0000	0.01693
428.0000	0.01674
427.0000	0.01649
426.0000	0.01629
425.0000	0.01615
424.0000	0.01596
423.0000	0.01586
422.0000	0.01574
421.0000	0.01562
420.0000	0.01534
419.0000	0.0153
418.0000	0.01528
417.0000	0.01536
416.0000	0.01545
415.0000	0.01562
414.0000	0.01571
413.0000	0.01577
412.0000	0.0159
411.0000	0.01614
410.0000	0.0165
409.0000	0.01689
408.0000	0.01725
407.0000	0.01758
406.0000	0.01799
405.0000	0.01845
404.0000	0.01904
403.0000	0.01952
402.0000	0.02004
401.0000	0.02048
400.0000	0.02103
399.0000	0.02147
398.0000	0.02186
397.0000	0.02212
396.0000	0.02221
395.0000	0.02222
394.0000	0.02236
393.0000	0.02255
392.0000	0.02266
391.0000	0.02265
390.0000	0.02255
389.0000	0.02251
388.0000	0.02243
387.0000	0.02227
386.0000	0.02215
385.0000	0.02215
384.0000	0.02206
383.0000	0.02204
382.0000	0.02195
381.0000	0.02197
380.0000	0.02194
379.0000	0.02191
378.0000	0.02199
377.0000	0.02211
376.0000	0.0222
375.0000	0.02219
374.0000	0.02226
373.0000	0.02227
372.0000	0.02241
371.0000	0.0226
370.0000	0.02287
369.0000	0.02308
368.0000	0.02319
367.0000	0.02337
366.0000	0.02361
365.0000	0.024
364.0000	0.02438
363.0000	0.02481
362.0000	0.02531
361.0000	0.02591
360.0000	0.02656
359.0000	0.02725
358.0000	0.02805
357.0000	0.02892
356.0000	0.02986
355.0000	0.03093
354.0000	0.03189
353.0000	0.03293
352.0000	0.03396
351.0000	0.03508
350.0000	0.03632
349.0000	0.03766
348.0000	0.03906
347.0000	0.04064
346.0000	0.04235
345.0000	0.04415
344.0000	0.04625
343.0000	0.04841
342.0000	0.05106
341.0000	0.05393
340.0000	0.05821
339.0000	0.06103
338.0000	0.06432
337.0000	0.06844
336.0000	0.07255
335.0000	0.07671
334.0000	0.08087
333.0000	0.08506
332.0000	0.08917
331.0000	0.09307
330.0000	0.09629
329.0000	0.09914
328.0000	0.10117
327.0000	0.10303
326.0000	0.10457
325.0000	0.10603
324.0000	0.10734
323.0000	0.10834
322.0000	0.10932
321.0000	0.11054
320.0000	0.11183
319.0000	0.11341
318.0000	0.11517
317.0000	0.11696
316.0000	0.11913
315.0000	0.12162
314.0000	0.12477
313.0000	0.12832
312.0000	0.13282
311.0000	0.13851
310.0000	0.14573
309.0000	0.1546
308.0000	0.16536
307.0000	0.17796
306.0000	0.19244
305.0000	0.20847
304.0000	0.22605
303.0000	0.24507
302.0000	0.2652
301.0000	0.28645
300.0000	0.30796
299.0000	0.32951
298.0000	0.3503
297.0000	0.36979
296.0000	0.38716
295.0000	0.4015
294.0000	0.41244
293.0000	0.41905
292.0000	0.42116
291.0000	0.41853
290.0000	0.41176
289.0000	0.40165
288.0000	0.38906
287.0000	0.37504
286.0000	0.36034
285.0000	0.34571
284.0000	0.33134
283.0000	0.31729
282.0000	0.30365
281.0000	0.29018
280.0000	0.27685
279.0000	0.26426
278.0000	0.25191
277.0000	0.24046
276.0000	0.22989
275.0000	0.22014
274.0000	0.21147
273.0000	0.20358
272.0000	0.1963
271.0000	0.18947
270.0000	0.18279
269.0000	0.17633
268.0000	0.16996
267.0000	0.16368
266.0000	0.15792
265.0000	0.15285
264.0000	0.14879
263.0000	0.14564
262.0000	0.14328
261.0000	0.14182
260.0000	0.14113
259.0000	0.1414
258.0000	0.1428
257.0000	0.1449
256.0000	0.14813
255.0000	0.15236
254.0000	0.15778
253.0000	0.16453
252.0000	0.17214
251.0000	0.18047
250.0000	0.18892
249.0000	0.19672
248.0000	0.20284
247.0000	0.20658
246.0000	0.20747
245.0000	0.20572
244.0000	0.20183
243.0000	0.19626
242.0000	0.18975
241.0000	0.18253
240.0000	0.17513
239.0000	0.16767
238.0000	0.16057
237.0000	0.15365
236.0000	0.14734
235.0000	0.14167
234.0000	0.13656
233.0000	0.13238
232.0000	0.12905
231.0000	0.12655
230.0000	0.12493
229.0000	0.12361
228.0000	0.12274
227.0000	0.1219
226.0000	0.1218
225.0000	0.12223
224.0000	0.12308
223.0000	0.12436
222.0000	0.12615
221.0000	0.1283
220.0000	0.13105
219.0000	0.13421
218.0000	0.13777
217.0000	0.14144
216.0000	0.14499
215.0000	0.14852
214.0000	0.15198
213.0000	0.15558
212.0000	0.15918
211.0000	0.16322
210.0000	0.16687
209.0000	0.17072
208.0000	0.17415
207.0000	0.17766
206.0000	0.18103
205.0000	0.18386
204.0000	0.18636
203.0000	0.18736
202.0000	0.18684
201.0000	0.185
200.0000	0.18293
199.0000	0.18163
198.0000	0.18113
197.0000	0.18203
196.0000	0.18409
195.0000	0.18764
194.0000	0.19189
193.0000	0.19669
192.0000	0.20059
191.0000	0.20201
190.0000	0.20041
