TITLE	
DATA TYPE	
ORIGIN	JASCO
OWNER	
DATE	19/09/03
TIME	10:43:52
SPECTROMETER/DATA SYSTEM	JASCO Corp., V-570, Rev. 1.00
RESOLUTION	
DELTAX	-1
XUNITS	NANOMETERS
YUNITS	ABSORBANCE
FIRSTX	840.0000
LASTX	190.0000
NPOINTS	651
FIRSTY	-0.00042
MAXY	0.24648
MINY	-0.01693
XYDATA
840.0000	-4.2E-04
839.0000	-5.2E-04
838.0000	-6.5E-04
837.0000	-7.2E-04
836.0000	-7.3E-04
835.0000	-7.9E-04
834.0000	-8.3E-04
833.0000	-8.5E-04
832.0000	-9.4E-04
831.0000	-0.00102
830.0000	-0.00107
829.0000	-0.00106
828.0000	-0.00114
827.0000	-0.00121
826.0000	-0.00119
825.0000	-0.00116
824.0000	-0.00122
823.0000	-0.00122
822.0000	-0.00133
821.0000	-0.0013
820.0000	-0.00135
819.0000	-0.00126
818.0000	-0.0012
817.0000	-0.00107
816.0000	-0.00114
815.0000	-0.00121
814.0000	-0.00136
813.0000	-0.00131
812.0000	-0.00143
811.0000	-0.00145
810.0000	-0.00151
809.0000	-0.00151
808.0000	-0.00156
807.0000	-0.00159
806.0000	-0.00173
805.0000	-0.00177
804.0000	-0.0019
803.0000	-0.00201
802.0000	-0.00213
801.0000	-0.00208
800.0000	-0.00204
799.0000	-0.00187
798.0000	-0.00176
797.0000	-0.00174
796.0000	-0.00193
795.0000	-0.00207
794.0000	-0.0021
793.0000	-0.00215
792.0000	-0.00211
791.0000	-0.00201
790.0000	-0.00202
789.0000	-0.00201
788.0000	-0.00207
787.0000	-0.00212
786.0000	-0.00206
785.0000	-0.00214
784.0000	-0.0022
783.0000	-0.00229
782.0000	-0.00225
781.0000	-0.0023
780.0000	-0.00236
779.0000	-0.00247
778.0000	-0.0025
777.0000	-0.00256
776.0000	-0.00263
775.0000	-0.00267
774.0000	-0.00261
773.0000	-0.0026
772.0000	-0.00263
771.0000	-0.00268
770.0000	-0.00273
769.0000	-0.0027
768.0000	-0.00262
767.0000	-0.00261
766.0000	-0.00255
765.0000	-0.00267
764.0000	-0.00268
763.0000	-0.00274
762.0000	-0.0028
761.0000	-0.00282
760.0000	-0.00287
759.0000	-0.00287
758.0000	-0.00286
757.0000	-0.00282
756.0000	-0.00286
755.0000	-0.00289
754.0000	-0.00292
753.0000	-0.00294
752.0000	-0.00297
751.0000	-0.003
750.0000	-0.00299
749.0000	-0.00301
748.0000	-0.00307
747.0000	-0.00304
746.0000	-0.00301
745.0000	-0.00305
744.0000	-0.003
743.0000	-0.00298
742.0000	-0.00298
741.0000	-0.003
740.0000	-0.00296
739.0000	-0.00302
738.0000	-0.00312
737.0000	-0.00317
736.0000	-0.00318
735.0000	-0.00309
734.0000	-0.00305
733.0000	-0.003
732.0000	-0.00294
731.0000	-0.00294
730.0000	-0.00295
729.0000	-0.00292
728.0000	-0.00283
727.0000	-0.00268
726.0000	-0.00254
725.0000	-0.00241
724.0000	-0.00231
723.0000	-0.00222
722.0000	-0.00209
721.0000	-0.00192
720.0000	-0.00179
719.0000	-0.00167
718.0000	-0.00148
717.0000	-0.00127
716.0000	-9.1E-04
715.0000	-6.6E-04
714.0000	-3.4E-04
713.0000	-3E-05
712.0000	4.5E-04
711.0000	9.5E-04
710.0000	0.00149
709.0000	0.00213
708.0000	0.00284
707.0000	0.0037
706.0000	0.00459
705.0000	0.00562
704.0000	0.00675
703.0000	0.00806
702.0000	0.00943
701.0000	0.01099
700.0000	0.01274
699.0000	0.01468
698.0000	0.01693
697.0000	0.01937
696.0000	0.02211
695.0000	0.02516
694.0000	0.02852
693.0000	0.03231
692.0000	0.0365
691.0000	0.04117
690.0000	0.04627
689.0000	0.0518
688.0000	0.05781
687.0000	0.06436
686.0000	0.07145
685.0000	0.07905
684.0000	0.08716
683.0000	0.09572
682.0000	0.10477
681.0000	0.11408
680.0000	0.1238
679.0000	0.13369
678.0000	0.14382
677.0000	0.1538
676.0000	0.16372
675.0000	0.17332
674.0000	0.18258
673.0000	0.19142
672.0000	0.19967
671.0000	0.20737
670.0000	0.21432
669.0000	0.22063
668.0000	0.22613
667.0000	0.23084
666.0000	0.23486
665.0000	0.2382
664.0000	0.2409
663.0000	0.24303
662.0000	0.2446
661.0000	0.24566
660.0000	0.24626
659.0000	0.24648
658.0000	0.24632
657.0000	0.24582
656.0000	0.24488
655.0000	0.24361
654.0000	0.24203
653.0000	0.24018
652.0000	0.23799
651.0000	0.23547
650.0000	0.23266
649.0000	0.22962
648.0000	0.22634
647.0000	0.22288
646.0000	0.21928
645.0000	0.21556
644.0000	0.21175
643.0000	0.20799
642.0000	0.20421
641.0000	0.20045
640.0000	0.19672
639.0000	0.19311
638.0000	0.18963
637.0000	0.18624
636.0000	0.18289
635.0000	0.1797
634.0000	0.17665
633.0000	0.17369
632.0000	0.17087
631.0000	0.16811
630.0000	0.1656
629.0000	0.1631
628.0000	0.16082
627.0000	0.15869
626.0000	0.15675
625.0000	0.15495
624.0000	0.15321
623.0000	0.15165
622.0000	0.1502
621.0000	0.14887
620.0000	0.1476
619.0000	0.14638
618.0000	0.14515
617.0000	0.14386
616.0000	0.14256
615.0000	0.14124
614.0000	0.13989
613.0000	0.13851
612.0000	0.13707
611.0000	0.13548
610.0000	0.13379
609.0000	0.13202
608.0000	0.13017
607.0000	0.12818
606.0000	0.126
605.0000	0.12368
604.0000	0.12129
603.0000	0.11883
602.0000	0.11627
601.0000	0.11362
600.0000	0.11085
599.0000	0.10813
598.0000	0.10537
597.0000	0.10259
596.0000	0.09977
595.0000	0.09704
594.0000	0.09424
593.0000	0.09148
592.0000	0.08872
591.0000	0.08604
590.0000	0.08331
589.0000	0.08063
588.0000	0.07797
587.0000	0.07532
586.0000	0.0728
585.0000	0.07036
584.0000	0.06801
583.0000	0.06572
582.0000	0.06356
581.0000	0.06148
580.0000	0.05942
579.0000	0.05741
578.0000	0.05548
577.0000	0.05358
576.0000	0.05176
575.0000	0.04999
574.0000	0.04833
573.0000	0.04669
572.0000	0.04516
571.0000	0.04371
570.0000	0.04227
569.0000	0.04085
568.0000	0.03951
567.0000	0.03825
566.0000	0.03701
565.0000	0.03577
564.0000	0.03457
563.0000	0.03338
562.0000	0.03228
561.0000	0.03117
560.0000	0.03015
559.0000	0.02915
558.0000	0.02808
557.0000	0.02706
556.0000	0.02608
555.0000	0.02516
554.0000	0.02431
553.0000	0.02337
552.0000	0.0224
551.0000	0.02152
550.0000	0.02067
549.0000	0.01994
548.0000	0.01919
547.0000	0.01844
546.0000	0.01767
545.0000	0.01701
544.0000	0.0164
543.0000	0.01578
542.0000	0.01514
541.0000	0.01446
540.0000	0.01391
539.0000	0.01332
538.0000	0.01282
537.0000	0.01231
536.0000	0.01187
535.0000	0.0115
534.0000	0.01112
533.0000	0.01074
532.0000	0.0104
531.0000	0.01007
530.0000	0.00978
529.0000	0.0094
528.0000	0.00905
527.0000	0.00878
526.0000	0.00857
525.0000	0.00836
524.0000	0.00812
523.0000	0.00796
522.0000	0.0078
521.0000	0.00758
520.0000	0.00735
519.0000	0.00724
518.0000	0.00709
517.0000	0.00685
516.0000	0.00667
515.0000	0.00652
514.0000	0.00645
513.0000	0.00636
512.0000	0.00628
511.0000	0.00619
510.0000	0.00611
509.0000	0.00602
508.0000	0.00586
507.0000	0.00573
506.0000	0.00561
505.0000	0.00557
504.0000	0.00552
503.0000	0.00547
502.0000	0.00536
501.0000	0.00522
500.0000	0.0051
499.0000	0.00493
498.0000	0.00479
497.0000	0.00461
496.0000	0.00447
495.0000	0.00434
494.0000	0.0042
493.0000	0.00404
492.0000	0.00384
491.0000	0.00359
490.0000	0.0033
489.0000	0.00301
488.0000	0.00278
487.0000	0.00263
486.0000	0.00246
485.0000	0.00221
484.0000	0.00192
483.0000	0.00172
482.0000	0.0015
481.0000	0.00117
480.0000	8.5E-04
479.0000	5.3E-04
478.0000	3E-04
477.0000	-1E-05
476.0000	-2.5E-04
475.0000	-5.2E-04
474.0000	-8.1E-04
473.0000	-0.00108
472.0000	-0.00138
471.0000	-0.00169
470.0000	-0.00203
469.0000	-0.00234
468.0000	-0.00257
467.0000	-0.00288
466.0000	-0.00315
465.0000	-0.00343
464.0000	-0.00374
463.0000	-0.00405
462.0000	-0.00437
461.0000	-0.00462
460.0000	-0.00486
459.0000	-0.00513
458.0000	-0.00542
457.0000	-0.00572
456.0000	-0.00605
455.0000	-0.00638
454.0000	-0.00675
453.0000	-0.00703
452.0000	-0.00731
451.0000	-0.00753
450.0000	-0.0078
449.0000	-0.00813
448.0000	-0.00838
447.0000	-0.00872
446.0000	-0.009
445.0000	-0.00932
444.0000	-0.00952
443.0000	-0.00974
442.0000	-0.01001
441.0000	-0.01026
440.0000	-0.01061
439.0000	-0.01087
438.0000	-0.01111
437.0000	-0.01133
436.0000	-0.0116
435.0000	-0.01182
434.0000	-0.01202
433.0000	-0.01228
432.0000	-0.01257
431.0000	-0.01286
430.0000	-0.01301
429.0000	-0.01315
428.0000	-0.01326
427.0000	-0.0135
426.0000	-0.01375
425.0000	-0.01394
424.0000	-0.0142
423.0000	-0.01438
422.0000	-0.01453
421.0000	-0.01474
420.0000	-0.01501
419.0000	-0.01518
418.0000	-0.01526
417.0000	-0.01541
416.0000	-0.01549
415.0000	-0.01547
414.0000	-0.01565
413.0000	-0.01583
412.0000	-0.01605
411.0000	-0.01609
410.0000	-0.01605
409.0000	-0.0159
408.0000	-0.01593
407.0000	-0.01588
406.0000	-0.01594
405.0000	-0.01595
404.0000	-0.01594
403.0000	-0.01585
402.0000	-0.01581
401.0000	-0.01572
400.0000	-0.01565
399.0000	-0.01544
398.0000	-0.01535
397.0000	-0.01529
396.0000	-0.01536
395.0000	-0.01543
394.0000	-0.01557
393.0000	-0.0157
392.0000	-0.01576
391.0000	-0.01584
390.0000	-0.01591
389.0000	-0.01611
388.0000	-0.01621
387.0000	-0.01635
386.0000	-0.01631
385.0000	-0.01639
384.0000	-0.01643
383.0000	-0.01655
382.0000	-0.01661
381.0000	-0.01669
380.0000	-0.01672
379.0000	-0.01678
378.0000	-0.01683
377.0000	-0.01681
376.0000	-0.01684
375.0000	-0.01679
374.0000	-0.01688
373.0000	-0.01693
372.0000	-0.01691
371.0000	-0.01681
370.0000	-0.01673
369.0000	-0.01663
368.0000	-0.0164
367.0000	-0.01626
366.0000	-0.01631
365.0000	-0.01627
364.0000	-0.01601
363.0000	-0.01567
362.0000	-0.01546
361.0000	-0.0151
360.0000	-0.01482
359.0000	-0.01438
358.0000	-0.01385
357.0000	-0.01336
356.0000	-0.01277
355.0000	-0.01232
354.0000	-0.01182
353.0000	-0.01113
352.0000	-0.01037
351.0000	-0.00965
350.0000	-0.009
349.0000	-0.00822
348.0000	-0.00726
347.0000	-0.00614
346.0000	-0.00504
345.0000	-0.00385
344.0000	-0.00277
343.0000	-0.00158
342.0000	-2.1E-04
341.0000	0.00122
340.0000	0.00339
339.0000	0.00466
338.0000	0.00595
337.0000	0.00756
336.0000	0.00941
335.0000	0.01151
334.0000	0.01336
333.0000	0.01531
332.0000	0.01718
331.0000	0.0191
330.0000	0.02084
329.0000	0.02225
328.0000	0.02346
327.0000	0.02434
326.0000	0.02509
325.0000	0.02591
324.0000	0.02663
323.0000	0.02727
322.0000	0.02792
321.0000	0.02851
320.0000	0.02906
319.0000	0.02954
318.0000	0.03005
317.0000	0.0305
316.0000	0.03112
315.0000	0.03191
314.0000	0.03307
313.0000	0.03409
312.0000	0.03546
311.0000	0.03712
310.0000	0.03942
309.0000	0.04218
308.0000	0.04567
307.0000	0.04963
306.0000	0.05458
305.0000	0.06023
304.0000	0.06651
303.0000	0.07317
302.0000	0.08015
301.0000	0.08775
300.0000	0.09564
299.0000	0.10346
298.0000	0.11135
297.0000	0.11872
296.0000	0.12584
295.0000	0.13178
294.0000	0.13671
293.0000	0.13997
292.0000	0.14184
291.0000	0.14194
290.0000	0.1404
289.0000	0.13742
288.0000	0.13312
287.0000	0.12826
286.0000	0.1228
285.0000	0.11747
284.0000	0.11191
283.0000	0.10667
282.0000	0.10148
281.0000	0.09652
280.0000	0.09164
279.0000	0.08695
278.0000	0.08244
277.0000	0.0781
276.0000	0.07416
275.0000	0.07047
274.0000	0.06697
273.0000	0.06382
272.0000	0.06098
271.0000	0.05837
270.0000	0.05588
269.0000	0.05354
268.0000	0.0513
267.0000	0.04911
266.0000	0.04695
265.0000	0.04486
264.0000	0.04298
263.0000	0.04131
262.0000	0.04015
261.0000	0.0392
260.0000	0.03849
259.0000	0.0381
258.0000	0.03809
257.0000	0.03824
256.0000	0.03867
255.0000	0.03938
254.0000	0.04065
253.0000	0.04233
252.0000	0.04429
251.0000	0.04649
250.0000	0.04874
249.0000	0.05102
248.0000	0.05275
247.0000	0.05387
246.0000	0.05424
245.0000	0.05375
244.0000	0.05231
243.0000	0.04996
242.0000	0.04723
241.0000	0.04434
240.0000	0.04143
239.0000	0.03852
238.0000	0.03577
237.0000	0.03306
236.0000	0.03072
235.0000	0.02871
234.0000	0.02707
233.0000	0.02566
232.0000	0.02468
231.0000	0.02406
230.0000	0.02391
229.0000	0.02394
228.0000	0.0245
227.0000	0.02485
226.0000	0.02567
225.0000	0.02654
224.0000	0.0279
223.0000	0.02937
222.0000	0.0309
221.0000	0.03243
220.0000	0.03434
219.0000	0.0365
218.0000	0.03886
217.0000	0.0412
216.0000	0.04379
215.0000	0.04582
214.0000	0.04788
213.0000	0.04974
212.0000	0.05176
211.0000	0.05348
210.0000	0.05486
209.0000	0.05593
208.0000	0.05644
207.0000	0.05671
206.0000	0.05648
205.0000	0.05615
204.0000	0.05499
203.0000	0.05345
202.0000	0.05147
201.0000	0.04977
200.0000	0.04862
199.0000	0.04855
198.0000	0.04961
197.0000	0.0514
196.0000	0.05281
195.0000	0.05492
194.0000	0.05731
193.0000	0.06103
192.0000	0.06681
191.0000	0.07228
190.0000	0.0771
