; (content of file E:\SAIF User Data\2019\Adrine Correya RS,ISP,CUSAT\190711G\SAIFXR190711G-04(D).raw)
_FILEVERSION = 2
_SAMPLE = D
_+SAMPLE = 
_SITE = "Cochin Uni"
_USER = "Cochin Uni"
_GONIOMETER_CODE = 20
; Goniometer : D8 theta/2theta, stage : Unknown
_SAMPLE_CHANGER_CODE = 0
_ATTACHMENTS_CODE = 0
_GONIOMETER_RADIUS = 217.5
_FIXED_DIVSLIT = 0.15
_FIXED_SAMPLESLIT = 1
_SOLLER_SLITS = 2
_FIXED_DETSLIT = 1
_MONOCHROMATOR = 0
; Incident beam monochromator : None
_THIN_FILM = N
_BETA_FILTER = N
_FIXED_ANTISLIT = 0.15
_ANALYZER_CODE = 0
; Received beam analyzer : None
_DATEMEASURED = "15-Jul-2019 16:34:10"
_WL_UNIT = A
_WL1 = 1.5406
_WL2 = 1.54439
_WL3 = 1.39222
_WLRATIO = 0.5
_ANODE = Cu

; Data for range 1
_DRIVE = COUPLED
_STEPTIME = 59.67
_STEPSIZE = 0.0198849
_STEPMODE = C
_START = 3
_THETA = 1.5
_2THETA = 3
_KHI = 0
_PHI = 0
_X = 0
_Y = 0
_Z = 0
_DETECTOR = 5
; Detector type : Unknown
_DETECTORSLIT = out
_AUX1 = 0
_AUX2 = 0
_AUX3 = 0
_TIMESTARTED = 11
_TEMP_RATE = -1
_TEMP_DELAY = -1
_KV = 40
_MA = 40
_RANGE_WL = 1.5406
_3DPLANE = 0
_V4_COUNTERS_MASK = 4096
_V4_DRIVES_MASK = 0
_V4_ENCODERS_MASK = 0
_2THETACOUNTS = 1
; 2THETA  PSD
   3.0000       1877
   3.0199       1887
   3.0398       1833
   3.0597       1725
   3.0795       1725
   3.0994       1754
   3.1193       1774
   3.1392       1756
   3.1591       1651
   3.1790       1622
   3.1988       1701
   3.2187       1679
   3.2386       1636
   3.2585       1651
   3.2784       1595
   3.2983       1599
   3.3182       1555
   3.3380       1530
   3.3579       1532
   3.3778       1536
   3.3977       1511
   3.4176       1482
   3.4375       1423
   3.4574       1530
   3.4772       1526
   3.4971       1422
   3.5170       1506
   3.5369       1441
   3.5568       1381
   3.5767       1366
   3.5965       1416
   3.6164       1494
   3.6363       1347
   3.6562       1322
   3.6761       1381
   3.6960       1402
   3.7159       1311
   3.7357       1333
   3.7556       1272
   3.7755       1247
   3.7954       1252
   3.8153       1304
   3.8352       1286
   3.8551       1298
   3.8749       1241
   3.8948       1247
   3.9147       1218
   3.9346       1214
   3.9545       1186
   3.9744       1244
   3.9942       1203
   4.0141       1247
   4.0340       1236
   4.0539       1235
   4.0738       1210
   4.0937       1176
   4.1136       1225
   4.1334       1189
   4.1533       1199
   4.1732       1242
   4.1931       1117
   4.2130       1198
   4.2329       1181
   4.2527       1245
   4.2726       1143
   4.2925       1127
   4.3124       1167
   4.3323       1124
   4.3522       1144
   4.3721       1150
   4.3919       1095
   4.4118       1167
   4.4317       1159
   4.4516       1123
   4.4715       1119
   4.4914       1129
   4.5113       1130
   4.5311       1082
   4.5510       1103
   4.5709       1109
   4.5908       1094
   4.6107       1084
   4.6306       1102
   4.6504       1068
   4.6703       1141
   4.6902       1067
   4.7101       1039
   4.7300       1065
   4.7499       1084
   4.7698       1074
   4.7896       1082
   4.8095       1098
   4.8294       1083
   4.8493       1107
   4.8692       1062
   4.8891       1048
   4.9090       1039
   4.9288       1044
   4.9487       1035
   4.9686       1063
   4.9885       1025
   5.0084       1067
   5.0283       1016
   5.0481       1078
   5.0680       1077
   5.0879        992
   5.1078       1036
   5.1277       1046
   5.1476       1019
   5.1675        971
   5.1873       1031
   5.2072        978
   5.2271        979
   5.2470       1008
   5.2669       1011
   5.2868        924
   5.3066        985
   5.3265        943
   5.3464        986
   5.3663        978
   5.3862        938
   5.4061        905
   5.4260        984
   5.4458       1004
   5.4657        967
   5.4856        943
   5.5055        916
   5.5254        940
   5.5453        946
   5.5652        936
   5.5850        934
   5.6049        900
   5.6248        928
   5.6447        964
   5.6646        933
   5.6845        926
   5.7043        914
   5.7242        922
   5.7441        889
   5.7640        932
   5.7839        935
   5.8038        867
   5.8237        924
   5.8435        939
   5.8634        961
   5.8833        870
   5.9032        973
   5.9231        920
   5.9430        911
   5.9629        912
   5.9827        846
   6.0026        918
   6.0225        882
   6.0424        855
   6.0623        881
   6.0822        816
   6.1020        859
   6.1219        872
   6.1418        872
   6.1617        822
   6.1816        861
   6.2015        906
   6.2214        925
   6.2412        897
   6.2611        848
   6.2810        862
   6.3009        884
   6.3208        823
   6.3407        862
   6.3605        859
   6.3804        839
   6.4003        873
   6.4202        874
   6.4401        793
   6.4600        824
   6.4799        839
   6.4997        868
   6.5196        870
   6.5395        883
   6.5594        806
   6.5793        861
   6.5992        854
   6.6191        817
   6.6389        801
   6.6588        818
   6.6787        885
   6.6986        830
   6.7185        778
   6.7384        830
   6.7582        855
   6.7781        840
   6.7980        858
   6.8179        824
   6.8378        803
   6.8577        813
   6.8776        812
   6.8974        862
   6.9173        818
   6.9372        841
   6.9571        838
   6.9770        800
   6.9969        799
   7.0167        763
   7.0366        801
   7.0565        792
   7.0764        780
   7.0963        790
   7.1162        757
   7.1361        800
   7.1559        806
   7.1758        835
   7.1957        819
   7.2156        804
   7.2355        789
   7.2554        757
   7.2753        756
   7.2951        793
   7.3150        756
   7.3349        810
   7.3548        795
   7.3747        792
   7.3946        777
   7.4144        808
   7.4343        731
   7.4542        756
   7.4741        796
   7.4940        812
   7.5139        785
   7.5338        804
   7.5536        770
   7.5735        796
   7.5934        790
   7.6133        783
   7.6332        755
   7.6531        759
   7.6730        769
   7.6928        736
   7.7127        742
   7.7326        749
   7.7525        795
   7.7724        761
   7.7923        756
   7.8121        757
   7.8320        720
   7.8519        763
   7.8718        748
   7.8917        740
   7.9116        760
   7.9315        706
   7.9513        701
   7.9712        719
   7.9911        760
   8.0110        741
   8.0309        773
   8.0508        749
   8.0706        684
   8.0905        689
   8.1104        730
   8.1303        757
   8.1502        750
   8.1701        746
   8.1900        774
   8.2098        738
   8.2297        761
   8.2496        732
   8.2695        689
   8.2894        717
   8.3093        751
   8.3292        753
   8.3490        728
   8.3689        756
   8.3888        721
   8.4087        739
   8.4286        728
   8.4485        765
   8.4683        749
   8.4882        710
   8.5081        736
   8.5280        689
   8.5479        723
   8.5678        707
   8.5877        715
   8.6075        704
   8.6274        745
   8.6473        698
   8.6672        689
   8.6871        659
   8.7070        703
   8.7269        759
   8.7467        729
   8.7666        662
   8.7865        680
   8.8064        705
   8.8263        754
   8.8462        721
   8.8660        745
   8.8859        693
   8.9058        728
   8.9257        741
   8.9456        644
   8.9655        696
   8.9854        706
   9.0052        664
   9.0251        726
   9.0450        651
   9.0649        684
   9.0848        755
   9.1047        693
   9.1245        750
   9.1444        713
   9.1643        708
   9.1842        711
   9.2041        727
   9.2240        725
   9.2439        695
   9.2637        747
   9.2836        717
   9.3035        693
   9.3234        689
   9.3433        684
   9.3632        658
   9.3831        680
   9.4029        670
   9.4228        713
   9.4427        656
   9.4626        680
   9.4825        675
   9.5024        710
   9.5222        690
   9.5421        690
   9.5620        683
   9.5819        707
   9.6018        712
   9.6217        719
   9.6416        685
   9.6614        668
   9.6813        698
   9.7012        657
   9.7211        619
   9.7410        693
   9.7609        678
   9.7808        636
   9.8006        719
   9.8205        695
   9.8404        666
   9.8603        686
   9.8802        691
   9.9001        697
   9.9199        685
   9.9398        642
   9.9597        690
   9.9796        669
   9.9995        695
  10.0194        691
  10.0393        652
  10.0591        712
  10.0790        628
  10.0989        702
  10.1188        654
  10.1387        698
  10.1586        667
  10.1784        572
  10.1983        663
  10.2182        718
  10.2381        667
  10.2580        635
  10.2779        691
  10.2978        675
  10.3176        656
  10.3375        672
  10.3574        648
  10.3773        687
  10.3972        676
  10.4171        610
  10.4370        694
  10.4568        637
  10.4767        705
  10.4966        669
  10.5165        676
  10.5364        693
  10.5563        689
  10.5761        657
  10.5960        692
  10.6159        659
  10.6358        644
  10.6557        751
  10.6756        737
  10.6955        702
  10.7153        709
  10.7352        689
  10.7551        691
  10.7750        679
  10.7949        645
  10.8148        679
  10.8347        656
  10.8545        682
  10.8744        649
  10.8943        675
  10.9142        645
  10.9341        628
  10.9540        617
  10.9738        664
  10.9937        663
  11.0136        651
  11.0335        655
  11.0534        677
  11.0733        611
  11.0932        646
  11.1130        670
  11.1329        659
  11.1528        664
  11.1727        659
  11.1926        666
  11.2125        653
  11.2323        701
  11.2522        654
  11.2721        655
  11.2920        629
  11.3119        613
  11.3318        650
  11.3517        628
  11.3715        632
  11.3914        635
  11.4113        651
  11.4312        638
  11.4511        628
  11.4710        647
  11.4909        646
  11.5107        639
  11.5306        623
  11.5505        641
  11.5704        638
  11.5903        677
  11.6102        631
  11.6300        633
  11.6499        618
  11.6698        632
  11.6897        653
  11.7096        631
  11.7295        643
  11.7494        643
  11.7692        647
  11.7891        585
  11.8090        582
  11.8289        655
  11.8488        635
  11.8687        632
  11.8886        648
  11.9084        599
  11.9283        617
  11.9482        638
  11.9681        631
  11.9880        679
  12.0079        664
  12.0277        627
  12.0476        639
  12.0675        615
  12.0874        647
  12.1073        619
  12.1272        606
  12.1471        659
  12.1669        639
  12.1868        687
  12.2067        624
  12.2266        687
  12.2465        645
  12.2664        676
  12.2862        614
  12.3061        633
  12.3260        660
  12.3459        633
  12.3658        672
  12.3857        663
  12.4056        679
  12.4254        686
  12.4453        688
  12.4652        682
  12.4851        731
  12.5050        707
  12.5249        737
  12.5448        742
  12.5646        744
  12.5845        727
  12.6044        766
  12.6243        780
  12.6442        761
  12.6641        748
  12.6839        837
  12.7038        838
  12.7237        810
  12.7436        788
  12.7635        751
  12.7834        873
  12.8033        804
  12.8231        796
  12.8430        812
  12.8629        757
  12.8828        771
  12.9027        754
  12.9226        764
  12.9425        718
  12.9623        690
  12.9822        754
  13.0021        732
  13.0220        658
  13.0419        692
  13.0618        657
  13.0816        648
  13.1015        658
  13.1214        632
  13.1413        633
  13.1612        612
  13.1811        597
  13.2010        630
  13.2208        631
  13.2407        577
  13.2606        627
  13.2805        605
  13.3004        617
  13.3203        596
  13.3401        624
  13.3600        563
  13.3799        547
  13.3998        574
  13.4197        550
  13.4396        592
  13.4595        560
  13.4793        557
  13.4992        542
  13.5191        558
  13.5390        546
  13.5589        599
  13.5788        525
  13.5987        563
  13.6185        591
  13.6384        554
  13.6583        543
  13.6782        602
  13.6981        564
  13.7180        512
  13.7378        557
  13.7577        582
  13.7776        543
  13.7975        582
  13.8174        552
  13.8373        551
  13.8572        530
  13.8770        559
  13.8969        537
  13.9168        557
  13.9367        519
  13.9566        529
  13.9765        548
  13.9963        532
  14.0162        529
  14.0361        537
  14.0560        548
  14.0759        513
  14.0958        555
  14.1157        545
  14.1355        531
  14.1554        545
  14.1753        515
  14.1952        535
  14.2151        536
  14.2350        595
  14.2549        573
  14.2747        492
  14.2946        523
  14.3145        523
  14.3344        544
  14.3543        543
  14.3742        553
  14.3940        489
  14.4139        515
  14.4338        525
  14.4537        529
  14.4736        535
  14.4935        565
  14.5134        524
  14.5332        579
  14.5531        578
  14.5730        557
  14.5929        564
  14.6128        574
  14.6327        550
  14.6526        545
  14.6724        616
  14.6923        628
  14.7122        549
  14.7321        599
  14.7520        543
  14.7719        546
  14.7917        522
  14.8116        524
  14.8315        544
  14.8514        537
  14.8713        532
  14.8912        489
  14.9111        517
  14.9309        536
  14.9508        495
  14.9707        510
  14.9906        500
  15.0105        514
  15.0304        526
  15.0502        513
  15.0701        523
  15.0900        511
  15.1099        516
  15.1298        533
  15.1497        502
  15.1696        532
  15.1894        504
  15.2093        527
  15.2292        513
  15.2491        508
  15.2690        480
  15.2889        487
  15.3088        459
  15.3286        487
  15.3485        475
  15.3684        490
  15.3883        503
  15.4082        523
  15.4281        487
  15.4479        481
  15.4678        510
  15.4877        487
  15.5076        515
  15.5275        474
  15.5474        487
  15.5673        496
  15.5871        503
  15.6070        479
  15.6269        520
  15.6468        493
  15.6667        469
  15.6866        491
  15.7065        481
  15.7263        505
  15.7462        538
  15.7661        529
  15.7860        514
  15.8059        549
  15.8258        490
  15.8456        513
  15.8655        505
  15.8854        519
  15.9053        531
  15.9252        515
  15.9451        546
  15.9650        568
  15.9848        592
  16.0047        559
  16.0246        579
  16.0445        552
  16.0644        630
  16.0843        610
  16.1041        571
  16.1240        582
  16.1439        588
  16.1638        594
  16.1837        534
  16.2036        515
  16.2235        536
  16.2433        490
  16.2632        530
  16.2831        498
  16.3030        486
  16.3229        490
  16.3428        506
  16.3627        479
  16.3825        485
  16.4024        472
  16.4223        465
  16.4422        501
  16.4621        463
  16.4820        506
  16.5018        453
  16.5217        473
  16.5416        516
  16.5615        508
  16.5814        454
  16.6013        463
  16.6212        508
  16.6410        501
  16.6609        501
  16.6808        457
  16.7007        496
  16.7206        462
  16.7405        456
  16.7604        470
  16.7802        438
  16.8001        460
  16.8200        419
  16.8399        469
  16.8598        501
  16.8797        425
  16.8995        441
  16.9194        507
  16.9393        440
  16.9592        450
  16.9791        441
  16.9990        451
  17.0189        447
  17.0387        432
  17.0586        442
  17.0785        462
  17.0984        458
  17.1183        400
  17.1382        454
  17.1580        406
  17.1779        433
  17.1978        460
  17.2177        423
  17.2376        440
  17.2575        435
  17.2774        477
  17.2972        401
  17.3171        408
  17.3370        439
  17.3569        414
  17.3768        460
  17.3967        442
  17.4166        479
  17.4364        471
  17.4563        475
  17.4762        427
  17.4961        410
  17.5160        441
  17.5359        448
  17.5557        420
  17.5756        423
  17.5955        463
  17.6154        458
  17.6353        459
  17.6552        474
  17.6751        465
  17.6949        458
  17.7148        425
  17.7347        448
  17.7546        414
  17.7745        428
  17.7944        446
  17.8143        439
  17.8341        410
  17.8540        441
  17.8739        415
  17.8938        410
  17.9137        470
  17.9336        412
  17.9534        428
  17.9733        423
  17.9932        398
  18.0131        418
  18.0330        428
  18.0529        403
  18.0728        434
  18.0926        393
  18.1125        430
  18.1324        418
  18.1523        388
  18.1722        417
  18.1921        437
  18.2119        440
  18.2318        387
  18.2517        451
  18.2716        392
  18.2915        411
  18.3114        427
  18.3313        444
  18.3511        430
  18.3710        407
  18.3909        437
  18.4108        405
  18.4307        407
  18.4506        410
  18.4705        409
  18.4903        417
  18.5102        431
  18.5301        420
  18.5500        401
  18.5699        459
  18.5898        395
  18.6096        413
  18.6295        410
  18.6494        413
  18.6693        411
  18.6892        415
  18.7091        394
  18.7290        398
  18.7488        403
  18.7687        365
  18.7886        403
  18.8085        410
  18.8284        406
  18.8483        424
  18.8682        415
  18.8880        417
  18.9079        420
  18.9278        420
  18.9477        404
  18.9676        408
  18.9875        408
  19.0073        370
  19.0272        387
  19.0471        395
  19.0670        415
  19.0869        400
  19.1068        416
  19.1267        426
  19.1465        403
  19.1664        430
  19.1863        367
  19.2062        433
  19.2261        388
  19.2460        435
  19.2658        385
  19.2857        401
  19.3056        387
  19.3255        376
  19.3454        397
  19.3653        367
  19.3852        414
  19.4050        419
  19.4249        424
  19.4448        400
  19.4647        415
  19.4846        446
  19.5045        406
  19.5244        406
  19.5442        382
  19.5641        406
  19.5840        408
  19.6039        385
  19.6238        451
  19.6437        397
  19.6635        390
  19.6834        399
  19.7033        350
  19.7232        373
  19.7431        382
  19.7630        405
  19.7829        382
  19.8027        417
  19.8226        437
  19.8425        370
  19.8624        398
  19.8823        427
  19.9022        351
  19.9220        383
  19.9419        379
  19.9618        406
  19.9817        392
  20.0016        406
  20.0215        413
  20.0414        366
  20.0612        419
  20.0811        414
  20.1010        384
  20.1209        363
  20.1408        380
  20.1607        399
  20.1806        357
  20.2004        431
  20.2203        381
  20.2402        390
  20.2601        366
  20.2800        351
  20.2999        395
  20.3197        367
  20.3396        368
  20.3595        364
  20.3794        362
  20.3993        381
  20.4192        414
  20.4391        383
  20.4589        397
  20.4788        415
  20.4987        384
  20.5186        366
  20.5385        389
  20.5584        365
  20.5783        370
  20.5981        365
  20.6180        358
  20.6379        366
  20.6578        410
  20.6777        362
  20.6976        376
  20.7174        328
  20.7373        396
  20.7572        398
  20.7771        368
  20.7970        361
  20.8169        348
  20.8368        364
  20.8566        367
  20.8765        367
  20.8964        386
  20.9163        386
  20.9362        378
  20.9561        381
  20.9759        363
  20.9958        386
  21.0157        383
  21.0356        382
  21.0555        386
  21.0754        398
  21.0953        375
  21.1151        378
  21.1350        357
  21.1549        376
  21.1748        352
  21.1947        383
  21.2146        410
  21.2345        390
  21.2543        387
  21.2742        378
  21.2941        387
  21.3140        399
  21.3339        407
  21.3538        434
  21.3736        404
  21.3935        425
  21.4134        414
  21.4333        429
  21.4532        450
  21.4731        454
  21.4930        469
  21.5128        504
  21.5327        523
  21.5526        461
  21.5725        489
  21.5924        471
  21.6123        459
  21.6322        492
  21.6520        406
  21.6719        426
  21.6918        426
  21.7117        409
  21.7316        370
  21.7515        379
  21.7713        397
  21.7912        407
  21.8111        381
  21.8310        387
  21.8509        374
  21.8708        378
  21.8907        417
  21.9105        396
  21.9304        359
  21.9503        398
  21.9702        360
  21.9901        362
  22.0100        386
  22.0298        352
  22.0497        381
  22.0696        377
  22.0895        381
  22.1094        378
  22.1293        363
  22.1492        361
  22.1690        367
  22.1889        389
  22.2088        371
  22.2287        376
  22.2486        356
  22.2685        362
  22.2884        406
  22.3082        381
  22.3281        349
  22.3480        338
  22.3679        330
  22.3878        399
  22.4077        390
  22.4275        383
  22.4474        404
  22.4673        359
  22.4872        353
  22.5071        409
  22.5270        368
  22.5469        412
  22.5667        401
  22.5866        396
  22.6065        385
  22.6264        381
  22.6463        403
  22.6662        388
  22.6861        412
  22.7059        355
  22.7258        395
  22.7457        420
  22.7656        413
  22.7855        422
  22.8054        393
  22.8252        396
  22.8451        440
  22.8650        416
  22.8849        425
  22.9048        428
  22.9247        410
  22.9446        461
  22.9644        423
  22.9843        488
  23.0042        466
  23.0241        497
  23.0440        513
  23.0639        541
  23.0837        575
  23.1036        639
  23.1235        640
  23.1434        735
  23.1633        748
  23.1832        751
  23.2031        718
  23.2229        675
  23.2428        606
  23.2627        616
  23.2826        567
  23.3025        545
  23.3224        524
  23.3423        506
  23.3621        516
  23.3820        513
  23.4019        543
  23.4218        486
  23.4417        509
  23.4616        473
  23.4814        499
  23.5013        566
  23.5212        573
  23.5411        545
  23.5610        593
  23.5809        657
  23.6008        697
  23.6206        733
  23.6405        794
  23.6604        790
  23.6803        870
  23.7002        975
  23.7201        975
  23.7400        962
  23.7598        931
  23.7797        970
  23.7996        942
  23.8195        866
  23.8394        840
  23.8593        822
  23.8791        819
  23.8990        743
  23.9189        689
  23.9388        675
  23.9587        588
  23.9786        547
  23.9985        561
  24.0183        526
  24.0382        491
  24.0581        492
  24.0780        461
  24.0979        485
  24.1178        504
  24.1376        443
  24.1575        445
  24.1774        429
  24.1973        438
  24.2172        426
  24.2371        427
  24.2570        422
  24.2768        366
  24.2967        427
  24.3166        389
  24.3365        433
  24.3564        439
  24.3763        444
  24.3962        453
  24.4160        440
  24.4359        403
  24.4558        408
  24.4757        411
  24.4956        423
  24.5155        365
  24.5353        433
  24.5552        384
  24.5751        392
  24.5950        422
  24.6149        364
  24.6348        430
  24.6547        361
  24.6745        363
  24.6944        399
  24.7143        371
  24.7342        392
  24.7541        363
  24.7740        329
  24.7939        383
  24.8137        345
  24.8336        332
  24.8535        368
  24.8734        374
  24.8933        372
  24.9132        370
  24.9330        381
  24.9529        368
  24.9728        384
  24.9927        362
  25.0126        405
  25.0325        408
  25.0524        333
  25.0722        407
  25.0921        400
  25.1120        390
  25.1319        403
  25.1518        389
  25.1717        446
  25.1915        428
  25.2114        421
  25.2313        416
  25.2512        422
  25.2711        429
  25.2910        423
  25.3109        400
  25.3307        376
  25.3506        424
  25.3705        416
  25.3904        441
  25.4103        439
  25.4302        413
  25.4501        448
  25.4699        417
  25.4898        430
  25.5097        461
  25.5296        460
  25.5495        504
  25.5694        510
  25.5892        494
  25.6091        544
  25.6290        550
  25.6489        524
  25.6688        471
  25.6887        511
  25.7086        467
  25.7284        485
  25.7483        492
  25.7682        525
  25.7881        489
  25.8080        514
  25.8279        472
  25.8478        466
  25.8676        429
  25.8875        465
  25.9074        520
  25.9273        440
  25.9472        484
  25.9671        464
  25.9869        442
  26.0068        452
  26.0267        430
  26.0466        477
  26.0665        420
  26.0864        436
  26.1063        431
  26.1261        457
  26.1460        424
  26.1659        382
  26.1858        434
  26.2057        406
  26.2256        347
  26.2454        421
  26.2653        394
  26.2852        378
  26.3051        412
  26.3250        432
  26.3449        438
  26.3648        377
  26.3846        394
  26.4045        376
  26.4244        392
  26.4443        351
  26.4642        379
  26.4841        407
  26.5040        417
  26.5238        447
  26.5437        392
  26.5636        404
  26.5835        387
  26.6034        396
  26.6233        440
  26.6431        458
  26.6630        495
  26.6829        470
  26.7028        518
  26.7227        558
  26.7426        570
  26.7625        591
  26.7823        622
  26.8022        608
  26.8221        546
  26.8420        565
  26.8619        569
  26.8818        518
  26.9016        506
  26.9215        505
  26.9414        533
  26.9613        517
  26.9812        559
  27.0011        580
  27.0210        540
  27.0408        548
  27.0607        555
  27.0806        539
  27.1005        521
  27.1204        528
  27.1403        564
  27.1602        629
  27.1800        731
  27.1999        785
  27.2198        840
  27.2397        921
  27.2596        906
  27.2795        898
  27.2993        801
  27.3192        781
  27.3391        658
  27.3590        648
  27.3789        575
  27.3988        565
  27.4187        558
  27.4385        485
  27.4584        507
  27.4783        537
  27.4982        537
  27.5181        540
  27.5380        532
  27.5579        498
  27.5777        517
  27.5976        520
  27.6175        560
  27.6374        564
  27.6573        580
  27.6772        626
  27.6970        696
  27.7169        896
  27.7368       1048
  27.7567       1324
  27.7766       1522
  27.7965       1687
  27.8164       1855
  27.8362       1740
  27.8561       1738
  27.8760       1604
  27.8959       1378
  27.9158       1190
  27.9357       1047
  27.9555        866
  27.9754        798
  27.9953        681
  28.0152        662
  28.0351        582
  28.0550        563
  28.0749        576
  28.0947        497
  28.1146        519
  28.1345        498
  28.1544        520
  28.1743        471
  28.1942        487
  28.2141        469
  28.2339        486
  28.2538        452
  28.2737        458
  28.2936        443
  28.3135        483
  28.3334        477
  28.3532        477
  28.3731        501
  28.3930        474
  28.4129        474
  28.4328        507
  28.4527        502
  28.4726        500
  28.4924        500
  28.5123        534
  28.5322        488
  28.5521        514
  28.5720        496
  28.5919        482
  28.6118        496
  28.6316        481
  28.6515        518
  28.6714        494
  28.6913        466
  28.7112        484
  28.7311        458
  28.7509        477
  28.7708        530
  28.7907        493
  28.8106        493
  28.8305        477
  28.8504        475
  28.8703        510
  28.8901        494
  28.9100        505
  28.9299        491
  28.9498        491
  28.9697        549
  28.9896        512
  29.0094        521
  29.0293        499
  29.0492        540
  29.0691        544
  29.0890        581
  29.1089        512
  29.1288        562
  29.1486        566
  29.1685        540
  29.1884        597
  29.2083        520
  29.2282        557
  29.2481        612
  29.2680        604
  29.2878        573
  29.3077        624
  29.3276        632
  29.3475        646
  29.3674        655
  29.3873        700
  29.4071        679
  29.4270        702
  29.4469        771
  29.4668        780
  29.4867        757
  29.5066        834
  29.5265        842
  29.5463        802
  29.5662        894
  29.5861        978
  29.6060        989
  29.6259       1075
  29.6458       1113
  29.6657       1200
  29.6855       1298
  29.7054       1349
  29.7253       1459
  29.7452       1638
  29.7651       1661
  29.7850       1842
  29.8048       1942
  29.8247       2164
  29.8446       2349
  29.8645       2465
  29.8844       2665
  29.9043       2768
  29.9242       2891
  29.9440       2946
  29.9639       2884
  29.9838       2927
  30.0037       2826
  30.0236       2762
  30.0435       2664
  30.0633       2632
  30.0832       2533
  30.1031       2384
  30.1230       2376
  30.1429       2269
  30.1628       2143
  30.1827       1971
  30.2025       1928
  30.2224       1757
  30.2423       1728
  30.2622       1546
  30.2821       1427
  30.3020       1403
  30.3219       1211
  30.3417       1214
  30.3616       1104
  30.3815        987
  30.4014        882
  30.4213        835
  30.4412        909
  30.4610        817
  30.4809        766
  30.5008        757
  30.5207        715
  30.5406        627
  30.5605        645
  30.5804        600
  30.6002        610
  30.6201        607
  30.6400        555
  30.6599        544
  30.6798        569
  30.6997        480
  30.7196        504
  30.7394        504
  30.7593        502
  30.7792        452
  30.7991        510
  30.8190        477
  30.8389        460
  30.8587        460
  30.8786        447
  30.8985        460
  30.9184        455
  30.9383        424
  30.9582        473
  30.9781        397
  30.9979        456
  31.0178        414
  31.0377        404
  31.0576        390
  31.0775        424
  31.0974        433
  31.1172        401
  31.1371        383
  31.1570        406
  31.1769        425
  31.1968        406
  31.2167        422
  31.2366        415
  31.2564        410
  31.2763        406
  31.2962        409
  31.3161        398
  31.3360        396
  31.3559        366
  31.3758        402
  31.3956        454
  31.4155        395
  31.4354        411
  31.4553        465
  31.4752        510
  31.4951        559
  31.5149        515
  31.5348        556
  31.5547        532
  31.5746        565
  31.5945        474
  31.6144        545
  31.6343        475
  31.6541        473
  31.6740        436
  31.6939        439
  31.7138        459
  31.7337        464
  31.7536        393
  31.7735        425
  31.7933        388
  31.8132        375
  31.8331        383
  31.8530        396
  31.8729        432
  31.8928        385
  31.9126        412
  31.9325        401
  31.9524        406
  31.9723        365
  31.9922        418
  32.0121        407
  32.0320        414
  32.0518        403
  32.0717        425
  32.0916        415
  32.1115        423
  32.1314        467
  32.1513        454
  32.1711        424
  32.1910        449
  32.2109        477
  32.2308        493
  32.2507        478
  32.2706        552
  32.2905        544
  32.3103        648
  32.3302        597
  32.3501        626
  32.3700        701
  32.3899        685
  32.4098        784
  32.4297        811
  32.4495        962
  32.4694       1002
  32.4893       1165
  32.5092       1286
  32.5291       1326
  32.5490       1451
  32.5688       1526
  32.5887       1651
  32.6086       1575
  32.6285       1635
  32.6484       1626
  32.6683       1638
  32.6882       1527
  32.7080       1478
  32.7279       1374
  32.7478       1416
  32.7677       1280
  32.7876       1282
  32.8075       1159
  32.8273       1142
  32.8472       1098
  32.8671       1099
  32.8870       1083
  32.9069       1035
  32.9268        974
  32.9467        890
  32.9665        910
  32.9864        849
  33.0063        738
  33.0262        756
  33.0461        695
  33.0660        693
  33.0859        664
  33.1057        627
  33.1256        585
  33.1455        549
  33.1654        528
  33.1853        491
  33.2052        477
  33.2250        446
  33.2449        453
  33.2648        400
  33.2847        366
  33.3046        343
  33.3245        408
  33.3444        348
  33.3642        353
  33.3841        337
  33.4040        358
  33.4239        361
  33.4438        314
  33.4637        333
  33.4836        340
  33.5034        369
  33.5233        359
  33.5432        341
  33.5631        314
  33.5830        332
  33.6029        318
  33.6227        320
  33.6426        285
  33.6625        327
  33.6824        294
  33.7023        318
  33.7222        325
  33.7421        319
  33.7619        350
  33.7818        350
  33.8017        312
  33.8216        322
  33.8415        307
  33.8614        313
  33.8812        300
  33.9011        294
  33.9210        326
  33.9409        321
  33.9608        314
  33.9807        319
  34.0006        290
  34.0204        309
  34.0403        254
  34.0602        321
  34.0801        302
  34.1000        297
  34.1199        313
  34.1398        312
  34.1596        305
  34.1795        308
  34.1994        283
  34.2193        333
  34.2392        290
  34.2591        280
  34.2789        289
  34.2988        294
  34.3187        316
  34.3386        314
  34.3585        298
  34.3784        313
  34.3983        315
  34.4181        323
  34.4380        287
  34.4579        332
  34.4778        315
  34.4977        324
  34.5176        381
  34.5375        347
  34.5573        354
  34.5772        341
  34.5971        333
  34.6170        303
  34.6369        307
  34.6568        356
  34.6766        320
  34.6965        325
  34.7164        341
  34.7363        291
  34.7562        336
  34.7761        318
  34.7960        336
  34.8158        356
  34.8357        358
  34.8556        358
  34.8755        344
  34.8954        399
  34.9153        363
  34.9351        362
  34.9550        366
  34.9749        349
  34.9948        342
  35.0147        344
  35.0346        371
  35.0545        320
  35.0743        365
  35.0942        376
  35.1141        341
  35.1340        352
  35.1539        338
  35.1738        393
  35.1937        373
  35.2135        376
  35.2334        380
  35.2533        378
  35.2732        380
  35.2931        362
  35.3130        320
  35.3328        329
  35.3527        274
  35.3726        296
  35.3925        284
  35.4124        311
  35.4323        295
  35.4522        287
  35.4720        292
  35.4919        310
  35.5118        281
  35.5317        289
  35.5516        258
  35.5715        265
  35.5914        271
  35.6112        295
  35.6311        274
  35.6510        277
  35.6709        290
  35.6908        290
  35.7107        300
  35.7305        282
  35.7504        261
  35.7703        296
  35.7902        285
  35.8101        290
  35.8300        281
  35.8499        274
  35.8697        290
  35.8896        278
  35.9095        284
  35.9294        318
  35.9493        284
  35.9692        242
  35.9890        269
  36.0089        262
  36.0288        281
  36.0487        290
  36.0686        290
  36.0885        251
  36.1084        263
  36.1282        267
  36.1481        257
  36.1680        267
  36.1879        267
  36.2078        262
  36.2277        273
  36.2476        258
  36.2674        267
  36.2873        234
  36.3072        292
  36.3271        270
  36.3470        212
  36.3669        238
  36.3867        260
  36.4066        279
  36.4265        279
  36.4464        254
  36.4663        260
  36.4862        261
  36.5061        256
  36.5259        250
  36.5458        268
  36.5657        270
  36.5856        313
  36.6055        270
  36.6254        268
  36.6453        281
  36.6651        264
  36.6850        299
  36.7049        314
  36.7248        286
  36.7447        288
  36.7646        328
  36.7844        318
  36.8043        321
  36.8242        298
  36.8441        311
  36.8640        328
  36.8839        313
  36.9038        280
  36.9236        340
  36.9435        300
  36.9634        300
  36.9833        287
  37.0032        296
  37.0231        273
  37.0429        263
  37.0628        287
  37.0827        291
  37.1026        244
  37.1225        313
  37.1424        293
  37.1623        246
  37.1821        255
  37.2020        262
  37.2219        247
  37.2418        264
  37.2617        267
  37.2816        282
  37.3015        272
  37.3213        276
  37.3412        278
  37.3611        306
  37.3810        278
  37.4009        299
  37.4208        332
  37.4406        332
  37.4605        299
  37.4804        304
  37.5003        278
  37.5202        315
  37.5401        301
  37.5600        309
  37.5798        270
  37.5997        302
  37.6196        288
  37.6395        300
  37.6594        301
  37.6793        321
  37.6992        297
  37.7190        322
  37.7389        314
  37.7588        299
  37.7787        338
  37.7986        343
  37.8185        286
  37.8383        300
  37.8582        294
  37.8781        323
  37.8980        334
  37.9179        370
  37.9378        296
  37.9577        360
  37.9775        305
  37.9974        317
  38.0173        306
  38.0372        333
  38.0571        338
  38.0770        326
  38.0968        347
  38.1167        357
  38.1366        344
  38.1565        350
  38.1764        345
  38.1963        360
  38.2162        355
  38.2360        336
  38.2559        357
  38.2758        363
  38.2957        322
  38.3156        334
  38.3355        349
  38.3554        319
  38.3752        322
  38.3951        311
  38.4150        313
  38.4349        289
  38.4548        300
  38.4747        281
  38.4945        305
  38.5144        298
  38.5343        313
  38.5542        300
  38.5741        297
  38.5940        282
  38.6139        277
  38.6337        247
  38.6536        293
  38.6735        303
  38.6934        316
  38.7133        266
  38.7332        285
  38.7531        266
  38.7729        286
  38.7928        272
  38.8127        276
  38.8326        259
  38.8525        266
  38.8724        293
  38.8922        305
  38.9121        294
  38.9320        282
  38.9519        312
  38.9718        320
  38.9917        334
  39.0116        320
  39.0314        304
  39.0513        308
  39.0712        313
  39.0911        327
  39.1110        341
  39.1309        340
  39.1507        365
  39.1706        381
  39.1905        384
  39.2104        367
  39.2303        330
  39.2502        355
  39.2701        391
  39.2899        367
  39.3098        351
  39.3297        393
  39.3496        372
  39.3695        391
  39.3894        458
  39.4093        461
  39.4291        478
  39.4490        447
  39.4689        452
  39.4888        505
  39.5087        488
  39.5286        518
  39.5484        529
  39.5683        521
  39.5882        484
  39.6081        522
  39.6280        484
  39.6479        480
  39.6678        480
  39.6876        486
  39.7075        483
  39.7274        478
  39.7473        482
  39.7672        400
  39.7871        452
  39.8069        381
  39.8268        372
  39.8467        380
  39.8666        376
  39.8865        352
  39.9064        349
  39.9263        356
  39.9461        334
  39.9660        284
  39.9859        295
  40.0058        321
  40.0257        297
  40.0456        293
  40.0655        302
  40.0853        292
  40.1052        309
  40.1251        263
  40.1450        279
  40.1649        310
  40.1848        242
  40.2046        264
  40.2245        278
  40.2444        292
  40.2643        283
  40.2842        265
  40.3041        227
  40.3240        251
  40.3438        282
  40.3637        261
  40.3836        264
  40.4035        255
  40.4234        244
  40.4433        276
  40.4632        248
  40.4830        251
  40.5029        256
  40.5228        260
  40.5427        230
  40.5626        243
  40.5825        250
  40.6023        241
  40.6222        223
  40.6421        211
  40.6620        245
  40.6819        237
  40.7018        249
  40.7217        224
  40.7415        231
  40.7614        226
  40.7813        240
  40.8012        247
  40.8211        214
  40.8410        221
  40.8608        219
  40.8807        253
  40.9006        226
  40.9205        228
  40.9404        230
  40.9603        253
  40.9802        265
  41.0000        258
  41.0199        236
  41.0398        257
  41.0597        259
  41.0796        298
  41.0995        267
  41.1194        286
  41.1392        260
  41.1591        267
  41.1790        248
  41.1989        290
  41.2188        285
  41.2387        270
  41.2585        264
  41.2784        258
  41.2983        250
  41.3182        241
  41.3381        283
  41.3580        271
  41.3779        286
  41.3977        257
  41.4176        271
  41.4375        254
  41.4574        245
  41.4773        261
  41.4972        246
  41.5171        243
  41.5369        287
  41.5568        219
  41.5767        248
  41.5966        287
  41.6165        305
  41.6364        312
  41.6562        291
  41.6761        351
  41.6960        345
  41.7159        309
  41.7358        313
  41.7557        350
  41.7756        343
  41.7954        360
  41.8153        391
  41.8352        360
  41.8551        406
  41.8750        393
  41.8949        409
  41.9147        443
  41.9346        449
  41.9545        475
  41.9744        512
  41.9943        504
  42.0142        511
  42.0341        472
  42.0539        541
  42.0738        593
  42.0937        565
  42.1136        538
  42.1335        531
  42.1534        557
  42.1733        527
  42.1931        528
  42.2130        473
  42.2329        490
  42.2528        492
  42.2727        439
  42.2926        427
  42.3124        424
  42.3323        423
  42.3522        389
  42.3721        354
  42.3920        391
  42.4119        340
  42.4318        356
  42.4516        272
  42.4715        327
  42.4914        314
  42.5113        325
  42.5312        307
  42.5511        309
  42.5710        282
  42.5908        265
  42.6107        269
  42.6306        324
  42.6505        295
  42.6704        288
  42.6903        248
  42.7101        303
  42.7300        255
  42.7499        251
  42.7698        273
  42.7897        241
  42.8096        262
  42.8295        272
  42.8493        274
  42.8692        276
  42.8891        239
  42.9090        255
  42.9289        237
  42.9488        222
  42.9686        250
  42.9885        257
  43.0084        242
  43.0283        269
  43.0482        231
  43.0681        211
  43.0880        226
  43.1078        257
  43.1277        253
  43.1476        194
  43.1675        234
  43.1874        220
  43.2073        249
  43.2272        237
  43.2470        221
  43.2669        230
  43.2868        256
  43.3067        237
  43.3266        218
  43.3465        247
  43.3663        187
  43.3862        230
  43.4061        191
  43.4260        233
  43.4459        236
  43.4658        228
  43.4857        248
  43.5055        265
  43.5254        256
  43.5453        260
  43.5652        217
  43.5851        238
  43.6050        233
  43.6249        236
  43.6447        203
  43.6646        250
  43.6845        254
  43.7044        235
  43.7243        215
  43.7442        238
  43.7640        252
  43.7839        222
  43.8038        231
  43.8237        240
  43.8436        237
  43.8635        249
  43.8834        239
  43.9032        245
  43.9231        222
  43.9430        218
  43.9629        254
  43.9828        245
  44.0027        236
  44.0225        206
  44.0424        240
  44.0623        252
  44.0822        247
  44.1021        233
  44.1220        225
  44.1419        221
  44.1617        239
  44.1816        256
  44.2015        202
  44.2214        220
  44.2413        242
  44.2612        230
  44.2811        216
  44.3009        246
  44.3208        250
  44.3407        224
  44.3606        199
  44.3805        247
  44.4004        249
  44.4202        193
  44.4401        231
  44.4600        204
  44.4799        204
  44.4998        234
  44.5197        217
  44.5396        224
  44.5594        231
  44.5793        238
  44.5992        235
  44.6191        209
  44.6390        238
  44.6589        226
  44.6788        237
  44.6986        228
  44.7185        228
  44.7384        223
  44.7583        247
  44.7782        239
  44.7981        222
  44.8179        220
  44.8378        218
  44.8577        237
  44.8776        250
  44.8975        231
  44.9174        232
  44.9373        245
  44.9571        251
  44.9770        242
  44.9969        253
  45.0168        249
  45.0367        261
  45.0566        259
  45.0764        244
  45.0963        248
  45.1162        262
  45.1361        248
  45.1560        262
  45.1759        252
  45.1958        246
  45.2156        234
  45.2355        222
  45.2554        239
  45.2753        241
  45.2952        245
  45.3151        247
  45.3350        236
  45.3548        243
  45.3747        246
  45.3946        249
  45.4145        269
  45.4344        261
  45.4543        211
  45.4741        242
  45.4940        245
  45.5139        243
  45.5338        266
  45.5537        264
  45.5736        276
  45.5935        236
  45.6133        239
  45.6332        235
  45.6531        268
  45.6730        247
  45.6929        275
  45.7128        272
  45.7327        240
  45.7525        252
  45.7724        268
  45.7923        284
  45.8122        265
  45.8321        284
  45.8520        331
  45.8718        315
  45.8917        331
  45.9116        370
  45.9315        395
  45.9514        419
  45.9713        463
  45.9912        485
  46.0110        515
  46.0309        554
  46.0508        544
  46.0707        607
  46.0906        539
  46.1105        557
  46.1303        519
  46.1502        505
  46.1701        491
  46.1900        530
  46.2099        499
  46.2298        435
  46.2497        404
  46.2695        385
  46.2894        417
  46.3093        373
  46.3292        332
  46.3491        364
  46.3690        365
  46.3889        376
  46.4087        356
  46.4286        337
  46.4485        340
  46.4684        373
  46.4883        366
  46.5082        344
  46.5280        396
  46.5479        397
  46.5678        440
  46.5877        454
  46.6076        489
  46.6275        480
  46.6474        455
  46.6672        535
  46.6871        559
  46.7070        586
  46.7269        633
  46.7468        639
  46.7667        639
  46.7865        697
  46.8064        742
  46.8263        707
  46.8462        721
  46.8661        742
  46.8860        721
  46.9059        673
  46.9257        737
  46.9456        649
  46.9655        700
  46.9854        622
  47.0053        695
  47.0252        628
  47.0451        664
  47.0649        669
  47.0848        709
  47.1047        684
  47.1246        703
  47.1445        674
  47.1644        626
  47.1842        622
  47.2041        592
  47.2240        586
  47.2439        545
  47.2638        546
  47.2837        514
  47.3036        505
  47.3234        459
  47.3433        468
  47.3632        417
  47.3831        419
  47.4030        385
  47.4229        372
  47.4428        361
  47.4626        371
  47.4825        395
  47.5024        354
  47.5223        382
  47.5422        362
  47.5621        329
  47.5819        354
  47.6018        345
  47.6217        341
  47.6416        368
  47.6615        332
  47.6814        358
  47.7013        349
  47.7211        346
  47.7410        372
  47.7609        328
  47.7808        338
  47.8007        352
  47.8206        346
  47.8404        329
  47.8603        275
  47.8802        298
  47.9001        310
  47.9200        325
  47.9399        303
  47.9598        289
  47.9796        317
  47.9995        308
  48.0194        272
  48.0393        279
  48.0592        299
  48.0791        288
  48.0990        291
  48.1188        299
  48.1387        294
  48.1586        311
  48.1785        310
  48.1984        291
  48.2183        335
  48.2381        286
  48.2580        322
  48.2779        274
  48.2978        299
  48.3177        312
  48.3376        315
  48.3575        314
  48.3773        338
  48.3972        315
  48.4171        318
  48.4370        348
  48.4569        328
  48.4768        354
  48.4967        356
  48.5165        347
  48.5364        320
  48.5563        317
  48.5762        326
  48.5961        343
  48.6160        336
  48.6358        324
  48.6557        321
  48.6756        327
  48.6955        325
  48.7154        292
  48.7353        338
  48.7552        309
  48.7750        326
  48.7949        339
  48.8148        302
  48.8347        310
  48.8546        319
  48.8745        331
  48.8943        293
  48.9142        295
  48.9341        297
  48.9540        310
  48.9739        288
  48.9938        316
  49.0137        314
  49.0335        291
  49.0534        307
  49.0733        251
  49.0932        267
  49.1131        273
  49.1330        312
  49.1529        291
  49.1727        279
  49.1926        286
  49.2125        288
  49.2324        284
  49.2523        268
  49.2722        277
  49.2920        274
  49.3119        263
  49.3318        269
  49.3517        290
  49.3716        286
  49.3915        261
  49.4114        259
  49.4312        280
  49.4511        254
  49.4710        314
  49.4909        286
  49.5108        273
  49.5307        313
  49.5506        297
  49.5704        278
  49.5903        295
  49.6102        281
  49.6301        304
  49.6500        297
  49.6699        287
  49.6897        290
  49.7096        316
  49.7295        326
  49.7494        332
  49.7693        347
  49.7892        330
  49.8091        340
  49.8289        315
  49.8488        288
  49.8687        308
  49.8886        306
  49.9085        283
  49.9284        333
  49.9482        320
  49.9681        290
  49.9880        305
  50.0079        275
  50.0278        303
  50.0477        299
  50.0676        295
  50.0874        314
  50.1073        313
  50.1272        301
  50.1471        311
  50.1670        276
  50.1869        287
  50.2068        298
  50.2266        326
  50.2465        308
  50.2664        261
  50.2863        298
  50.3062        304
  50.3261        278
  50.3459        276
  50.3658        270
  50.3857        289
  50.4056        266
  50.4255        310
  50.4454        259
  50.4653        279
  50.4851        294
  50.5050        288
  50.5249        290
  50.5448        274
  50.5647        286
  50.5846        271
  50.6045        280
  50.6243        278
  50.6442        245
  50.6641        313
  50.6840        273
  50.7039        304
  50.7238        284
  50.7436        283
  50.7635        272
  50.7834        279
  50.8033        285
  50.8232        302
  50.8431        301
  50.8630        312
  50.8828        287
  50.9027        328
  50.9226        300
  50.9425        304
  50.9624        307
  50.9823        367
  51.0021        317
  51.0220        319
  51.0419        346
  51.0618        399
  51.0817        364
  51.1016        422
  51.1215        430
  51.1413        437
  51.1612        423
  51.1811        451
  51.2010        466
  51.2209        436
  51.2408        432
  51.2607        518
  51.2805        480
  51.3004        496
  51.3203        504
  51.3402        524
  51.3601        468
  51.3800        500
  51.3998        483
  51.4197        436
  51.4396        490
  51.4595        483
  51.4794        474
  51.4993        517
  51.5192        497
  51.5390        478
  51.5589        524
  51.5788        511
  51.5987        465
  51.6186        479
  51.6385        463
  51.6584        499
  51.6782        483
  51.6981        503
  51.7180        517
  51.7379        492
  51.7578        503
  51.7777        577
  51.7975        523
  51.8174        532
  51.8373        500
  51.8572        547
  51.8771        579
  51.8970        559
  51.9169        556
  51.9367        569
  51.9566        581
  51.9765        582
  51.9964        575
  52.0163        559
  52.0362        589
  52.0560        586
  52.0759        603
  52.0958        539
  52.1157        574
  52.1356        567
  52.1555        570
  52.1754        569
  52.1952        571
  52.2151        523
  52.2350        559
  52.2549        512
  52.2748        544
  52.2947        542
  52.3146        535
  52.3344        509
  52.3543        435
  52.3742        442
  52.3941        446
  52.4140        425
  52.4339        395
  52.4537        420
  52.4736        412
  52.4935        368
  52.5134        387
  52.5333        383
  52.5532        379
  52.5731        381
  52.5929        386
  52.6128        334
  52.6327        341
  52.6526        319
  52.6725        329
  52.6924        379
  52.7123        333
  52.7321        357
  52.7520        375
  52.7719        330
  52.7918        365
  52.8117        373
  52.8316        348
  52.8514        407
  52.8713        389
  52.8912        338
  52.9111        371
  52.9310        392
  52.9509        407
  52.9708        406
  52.9906        395
  53.0105        400
  53.0304        441
  53.0503        414
  53.0702        472
  53.0901        471
  53.1099        471
  53.1298        418
  53.1497        463
  53.1696        439
  53.1895        476
  53.2094        423
  53.2293        473
  53.2491        495
  53.2690        411
  53.2889        398
  53.3088        429
  53.3287        413
  53.3486        414
  53.3685        407
  53.3883        385
  53.4082        365
  53.4281        373
  53.4480        365
  53.4679        377
  53.4878        359
  53.5076        318
  53.5275        296
  53.5474        341
  53.5673        336
  53.5872        316
  53.6071        311
  53.6270        294
  53.6468        265
  53.6667        331
  53.6866        310
  53.7065        274
  53.7264        304
  53.7463        262
  53.7661        336
  53.7860        348
  53.8059        338
  53.8258        309
  53.8457        307
  53.8656        323
  53.8855        357
  53.9053        361
  53.9252        380
  53.9451        375
  53.9650        410
  53.9849        449
  54.0048        425
  54.0247        437
  54.0445        423
  54.0644        443
  54.0843        436
  54.1042        437
  54.1241        432
  54.1440        394
  54.1638        406
  54.1837        396
  54.2036        413
  54.2235        435
  54.2434        385
  54.2633        392
  54.2832        365
  54.3030        388
  54.3229        407
  54.3428        355
  54.3627        351
  54.3826        341
  54.4025        303
  54.4224        324
  54.4422        339
  54.4621        323
  54.4820        325
  54.5019        322
  54.5218        344
  54.5417        322
  54.5615        319
  54.5814        330
  54.6013        307
  54.6212        327
  54.6411        329
  54.6610        335
  54.6809        344
  54.7007        289
  54.7206        285
  54.7405        297
  54.7604        290
  54.7803        308
  54.8002        279
  54.8200        263
  54.8399        287
  54.8598        303
  54.8797        268
  54.8996        267
  54.9195        294
  54.9394        283
  54.9592        284
  54.9791        288
  54.9990        293
  55.0189        279
  55.0388        278
  55.0587        325
  55.0786        278
  55.0984        268
  55.1183        280
  55.1382        307
  55.1581        340
  55.1780        300
  55.1979        367
  55.2177        402
  55.2376        375
  55.2575        401
  55.2774        467
  55.2973        449
  55.3172        517
  55.3371        481
  55.3569        516
  55.3768        463
  55.3967        482
  55.4166        482
  55.4365        519
  55.4564        481
  55.4763        464
  55.4961        416
  55.5160        434
  55.5359        416
  55.5558        395
  55.5757        383
  55.5956        369
  55.6154        360
  55.6353        346
  55.6552        336
  55.6751        356
  55.6950        321
  55.7149        326
  55.7348        334
  55.7546        318
  55.7745        328
  55.7944        308
  55.8143        320
  55.8342        344
  55.8541        339
  55.8739        307
  55.8938        317
  55.9137        316
  55.9336        326
  55.9535        293
  55.9734        331
  55.9933        315
  56.0131        351
  56.0330        280
  56.0529        319
  56.0728        303
  56.0927        328
  56.1126        305
  56.1325        305
  56.1523        331
  56.1722        349
  56.1921        338
  56.2120        355
  56.2319        380
  56.2518        373
  56.2716        374
  56.2915        435
  56.3114        388
  56.3313        426
  56.3512        422
  56.3711        440
  56.3910        475
  56.4108        461
  56.4307        476
  56.4506        487
  56.4705        508
  56.4904        542
  56.5103        602
  56.5302        621
  56.5500        658
  56.5699        646
  56.5898        658
  56.6097        660
  56.6296        739
  56.6495        698
  56.6693        712
  56.6892        739
  56.7091        727
  56.7290        805
  56.7489        831
  56.7688        824
  56.7887        815
  56.8085        802
  56.8284        823
  56.8483        760
  56.8682        753
  56.8881        776
  56.9080        720
  56.9278        727
  56.9477        716
  56.9676        674
  56.9875        664
  57.0074        669
  57.0273        606
  57.0472        576
  57.0670        564
  57.0869        557
  57.1068        544
  57.1267        512
  57.1466        434
  57.1665        448
  57.1864        459
  57.2062        425
  57.2261        424
  57.2460        369
  57.2659        385
  57.2858        385
  57.3057        357
  57.3255        325
  57.3454        352
  57.3653        348
  57.3852        318
  57.4051        306
  57.4250        327
  57.4449        339
  57.4647        296
  57.4846        322
  57.5045        395
  57.5244        369
  57.5443        345
  57.5642        373
  57.5841        390
  57.6039        337
  57.6238        354
  57.6437        339
  57.6636        385
  57.6835        351
  57.7034        348
  57.7232        359
  57.7431        359
  57.7630        292
  57.7829        333
  57.8028        297
  57.8227        273
  57.8426        303
  57.8624        297
  57.8823        308
  57.9022        291
  57.9221        254
  57.9420        275
  57.9619        279
  57.9817        225
  58.0016        251
  58.0215        289
  58.0414        269
  58.0613        266
  58.0812        256
  58.1011        279
  58.1209        253
  58.1408        267
  58.1607        296
  58.1806        231
  58.2005        253
  58.2204        267
  58.2403        274
  58.2601        248
  58.2800        247
  58.2999        285
  58.3198        255
  58.3397        251
  58.3596        242
  58.3794        263
  58.3993        272
  58.4192        261
  58.4391        255
  58.4590        253
  58.4789        254
  58.4988        270
  58.5186        224
  58.5385        244
  58.5584        279
  58.5783        248
  58.5982        265
  58.6181        269
  58.6380        242
  58.6578        262
  58.6777        276
  58.6976        220
  58.7175        250
  58.7374        232
  58.7573        252
  58.7771        249
  58.7970        257
  58.8169        255
  58.8368        278
  58.8567        229
  58.8766        257
  58.8965        244
  58.9163        258
  58.9362        246
  58.9561        280
  58.9760        284
  58.9959        260
  59.0158        274
  59.0356        260
  59.0555        239
  59.0754        260
  59.0953        242
  59.1152        236
  59.1351        242
  59.1550        239
  59.1748        227
  59.1947        227
  59.2146        253
  59.2345        244
  59.2544        236
  59.2743        244
  59.2942        220
  59.3140        223
  59.3339        233
  59.3538        225
  59.3737        228
  59.3936        209
  59.4135        222
  59.4333        212
  59.4532        224
  59.4731        247
  59.4930        224
  59.5129        203
  59.5328        210
  59.5527        214
  59.5725        194
  59.5924        211
  59.6123        199
  59.6322        226
  59.6521        214
  59.6720        206
  59.6918        208
  59.7117        174
  59.7316        181
  59.7515        217
  59.7714        208
  59.7913        167
  59.8112        221
  59.8310        201
  59.8509        218
  59.8708        200
  59.8907        195
  59.9106        209
  59.9305        218
  59.9504        210
  59.9702        200
  59.9901        193
  60.0100        210
  60.0299        212
  60.0498        203
  60.0697        218
  60.0895        202
  60.1094        221
  60.1293        222
  60.1492        191
  60.1691        203
  60.1890        231
  60.2089        210
  60.2287        205
  60.2486        184
  60.2685        181
  60.2884        219
  60.3083        185
  60.3282        184
  60.3481        172
  60.3679        198
  60.3878        192
  60.4077        206
  60.4276        212
  60.4475        212
  60.4674        206
  60.4872        208
  60.5071        191
  60.5270        216
  60.5469        183
  60.5668        203
  60.5867        183
  60.6066        182
  60.6264        204
  60.6463        223
  60.6662        198
  60.6861        215
  60.7060        209
  60.7259        197
  60.7457        206
  60.7656        229
  60.7855        219
  60.8054        209
  60.8253        190
  60.8452        208
  60.8651        198
  60.8849        194
  60.9048        220
  60.9247        185
  60.9446        220
  60.9645        214
  60.9844        206
  61.0043        189
  61.0241        178
  61.0440        211
  61.0639        179
  61.0838        206
  61.1037        194
  61.1236        214
  61.1434        233
  61.1633        208
  61.1832        205
  61.2031        227
  61.2230        230
  61.2429        200
  61.2628        206
  61.2826        201
  61.3025        217
  61.3224        197
  61.3423        246
  61.3622        208
  61.3821        224
  61.4020        246
  61.4218        222
  61.4417        213
  61.4616        195
  61.4815        213
  61.5014        206
  61.5213        199
  61.5411        240
  61.5610        263
  61.5809        232
  61.6008        214
  61.6207        224
  61.6406        254
  61.6605        254
  61.6803        227
  61.7002        233
  61.7201        253
  61.7400        245
  61.7599        230
  61.7798        228
  61.7996        228
  61.8195        249
  61.8394        244
  61.8593        276
  61.8792        235
  61.8991        232
  61.9190        260
  61.9388        269
  61.9587        307
  61.9786        273
  61.9985        287
  62.0184        268
  62.0383        250
  62.0582        283
  62.0780        277
  62.0979        291
  62.1178        292
  62.1377        333
  62.1576        305
  62.1775        311
  62.1973        297
  62.2172        336
  62.2371        336
  62.2570        350
  62.2769        334
  62.2968        338
  62.3167        323
  62.3365        305
  62.3564        334
  62.3763        328
  62.3962        328
  62.4161        312
  62.4360        302
  62.4559        336
  62.4757        326
  62.4956        306
  62.5155        289
  62.5354        309
  62.5553        340
  62.5752        317
  62.5950        310
  62.6149        309
  62.6348        330
  62.6547        296
  62.6746        302
  62.6945        342
  62.7144        302
  62.7342        274
  62.7541        284
  62.7740        275
  62.7939        278
  62.8138        307
  62.8337        272
  62.8535        280
  62.8734        274
  62.8933        285
  62.9132        275
  62.9331        244
  62.9530        259
  62.9729        244
  62.9927        301
  63.0126        258
  63.0325        273
  63.0524        248
  63.0723        254
  63.0922        255
  63.1121        237
  63.1319        257
  63.1518        275
  63.1717        230
  63.1916        246
  63.2115        232
  63.2314        197
  63.2512        243
  63.2711        220
  63.2910        235
  63.3109        221
  63.3308        259
  63.3507        243
  63.3706        247
  63.3904        244
  63.4103        258
  63.4302        234
  63.4501        220
  63.4700        245
  63.4899        241
  63.5098        244
  63.5296        226
  63.5495        228
  63.5694        216
  63.5893        236
  63.6092        217
  63.6291        221
  63.6489        210
  63.6688        214
  63.6887        210
  63.7086        233
  63.7285        206
  63.7484        205
  63.7683        209
  63.7881        220
  63.8080        230
  63.8279        224
  63.8478        194
  63.8677        210
  63.8876        205
  63.9074        229
  63.9273        238
  63.9472        249
  63.9671        248
  63.9870        223
  64.0069        236
  64.0268        254
  64.0466        259
  64.0665        226
  64.0864        203
  64.1063        222
  64.1262        218
  64.1461        244
  64.1660        240
  64.1858        233
  64.2057        231
  64.2256        230
  64.2455        224
  64.2654        233
  64.2853        244
  64.3051        221
  64.3250        209
  64.3449        221
  64.3648        255
  64.3847        206
  64.4046        226
  64.4245        207
  64.4443        215
  64.4642        242
  64.4841        211
  64.5040        224
  64.5239        202
  64.5438        195
  64.5637        196
  64.5835        181
  64.6034        211
  64.6233        176
  64.6432        196
  64.6631        206
  64.6830        196
  64.7028        188
  64.7227        178
  64.7426        170
  64.7625        182
  64.7824        179
  64.8023        185
  64.8222        200
  64.8420        170
  64.8619        210
  64.8818        181
  64.9017        202
  64.9216        208
  64.9415        191
  64.9613        171
  64.9812        182
  65.0011        181
  65.0210        191
  65.0409        190
  65.0608        207
  65.0807        231
  65.1005        213
  65.1204        219
  65.1403        210
  65.1602        224
  65.1801        209
  65.2000        208
  65.2199        187
  65.2397        202
  65.2596        213
  65.2795        226
  65.2994        231
  65.3193        230
  65.3392        212
  65.3590        207
  65.3789        191
  65.3988        229
  65.4187        229
  65.4386        226
  65.4585        230
  65.4784        206
  65.4982        218
  65.5181        208
  65.5380        239
  65.5579        212
  65.5778        247
  65.5977        261
  65.6176        225
  65.6374        234
  65.6573        243
  65.6772        230
  65.6971        215
  65.7170        247
  65.7369        269
  65.7567        232
  65.7766        235
  65.7965        220
  65.8164        230
  65.8363        235
  65.8562        238
  65.8761        241
  65.8959        237
  65.9158        219
  65.9357        211
  65.9556        190
  65.9755        206
  65.9954        226
  66.0152        215
  66.0351        194
  66.0550        222
  66.0749        197
  66.0948        205
  66.1147        198
  66.1346        195
  66.1544        228
  66.1743        218
  66.1942        256
  66.2141        203
  66.2340        199
  66.2539        205
  66.2738        211
  66.2936        202
  66.3135        205
  66.3334        172
  66.3533        216
  66.3732        178
  66.3931        213
  66.4129        215
  66.4328        222
  66.4527        203
  66.4726        179
  66.4925        180
  66.5124        192
  66.5323        188
  66.5521        179
  66.5720        189
  66.5919        163
  66.6118        180
  66.6317        194
  66.6516        216
  66.6714        176
  66.6913        178
  66.7112        189
  66.7311        200
  66.7510        186
  66.7709        174
  66.7908        199
  66.8106        167
  66.8305        182
  66.8504        173
  66.8703        174
  66.8902        175
  66.9101        202
  66.9300        166
  66.9498        197
  66.9697        164
  66.9896        163
  67.0095        165
  67.0294        171
  67.0493        182
  67.0691        206
  67.0890        178
  67.1089        177
  67.1288        160
  67.1487        185
  67.1686        158
  67.1885        170
  67.2083        185
  67.2282        157
  67.2481        182
  67.2680        173
  67.2879        169
  67.3078        185
  67.3277        185
  67.3475        189
  67.3674        158
  67.3873        186
  67.4072        180
  67.4271        205
  67.4470        190
  67.4668        176
  67.4867        206
  67.5066        173
  67.5265        164
  67.5464        181
  67.5663        172
  67.5862        172
  67.6060        164
  67.6259        196
  67.6458        189
  67.6657        190
  67.6856        189
  67.7055        189
  67.7253        176
  67.7452        165
  67.7651        173
  67.7850        199
  67.8049        187
  67.8248        191
  67.8447        189
  67.8645        171
  67.8844        184
  67.9043        190
  67.9242        193
  67.9441        189
  67.9640        194
  67.9839        199
  68.0037        189
  68.0236        191
  68.0435        195
  68.0634        217
  68.0833        225
  68.1032        191
  68.1230        211
  68.1429        211
  68.1628        230
  68.1827        231
  68.2026        235
  68.2225        247
  68.2424        264
  68.2622        239
  68.2821        255
  68.3020        281
  68.3219        264
  68.3418        258
  68.3617        251
  68.3816        278
  68.4014        219
  68.4213        275
  68.4412        263
  68.4611        251
  68.4810        293
  68.5009        282
  68.5207        287
  68.5406        244
  68.5605        264
  68.5804        263
  68.6003        298
  68.6202        258
  68.6401        245
  68.6599        261
  68.6798        260
  68.6997        233
  68.7196        219
  68.7395        243
  68.7594        228
  68.7792        265
  68.7991        215
  68.8190        244
  68.8389        266
  68.8588        229
  68.8787        224
  68.8986        228
  68.9184        267
  68.9383        265
  68.9582        237
  68.9781        212
  68.9980        235
  69.0179        225
  69.0378        239
  69.0576        224
  69.0775        210
  69.0974        236
  69.1173        248
  69.1372        223
  69.1571        260
  69.1769        248
  69.1968        217
  69.2167        227
  69.2366        243
  69.2565        213
  69.2764        247
  69.2963        236
  69.3161        240
  69.3360        220
  69.3559        205
  69.3758        220
  69.3957        238
  69.4156        217
  69.4355        208
  69.4553        223
  69.4752        191
  69.4951        243
  69.5150        224
  69.5349        238
  69.5548        221
  69.5746        221
  69.5945        227
  69.6144        199
  69.6343        212
  69.6542        223
  69.6741        178
  69.6940        209
  69.7138        216
  69.7337        209
  69.7536        200
  69.7735        196
  69.7934        233
  69.8133        183
  69.8331        185
  69.8530        176
  69.8729        194
  69.8928        203
  69.9127        199
  69.9326        205
  69.9525        203
  69.9723        185
  69.9922        211
  70.0121        178
  70.0320        176
  70.0519        183
  70.0718        191
  70.0917        201
  70.1115        203
  70.1314        179
  70.1513        180
  70.1712        168
  70.1911        165
  70.2110        183
  70.2308        185
  70.2507        189
  70.2706        168
  70.2905        188
  70.3104        181
  70.3303        185
  70.3502        167
  70.3700        156
  70.3899        191
  70.4098        165
  70.4297        193
  70.4496        203
  70.4695        187
  70.4894        195
  70.5092        207
  70.5291        183
  70.5490        191
  70.5689        203
  70.5888        179
  70.6087        199
  70.6285        174
  70.6484        179
  70.6683        182
  70.6882        159
  70.7081        180
  70.7280        163
  70.7479        180
  70.7677        173
  70.7876        200
  70.8075        179
  70.8274        164
  70.8473        196
  70.8672        193
  70.8870        159
  70.9069        165
  70.9268        178
  70.9467        190
  70.9666        165
  70.9865        175
  71.0064        167
  71.0262        187
  71.0461        208
  71.0660        169
  71.0859        166
  71.1058        188
  71.1257        190
  71.1456        173
  71.1654        184
  71.1853        200
  71.2052        194
  71.2251        160
  71.2450        171
  71.2649        177
  71.2847        183
  71.3046        208
  71.3245        197
  71.3444        181
  71.3643        161
  71.3842        171
  71.4041        202
  71.4239        178
  71.4438        221
  71.4637        170
  71.4836        175
  71.5035        203
  71.5234        169
  71.5433        195
  71.5631        181
  71.5830        196
  71.6029        188
  71.6228        184
  71.6427        172
  71.6626        162
  71.6824        211
  71.7023        178
  71.7222        171
  71.7421        206
  71.7620        169
  71.7819        200
  71.8018        174
  71.8216        197
  71.8415        188
  71.8614        192
  71.8813        179
  71.9012        190
  71.9211        211
  71.9409        196
  71.9608        175
  71.9807        197
  72.0006        185
  72.0205        177
  72.0404        183
  72.0603        204
  72.0801        174
  72.1000        189
  72.1199        187
  72.1398        174
  72.1597        190
  72.1796        209
  72.1995        219
  72.2193        220
  72.2392        218
  72.2591        196
  72.2790        216
  72.2989        214
  72.3188        214
  72.3386        175
  72.3585        188
  72.3784        210
  72.3983        221
  72.4182        206
  72.4381        200
  72.4580        221
  72.4778        221
  72.4977        211
  72.5176        210
  72.5375        215
  72.5574        241
  72.5773        233
  72.5971        237
  72.6170        227
  72.6369        228
  72.6568        240
  72.6767        225
  72.6966        201
  72.7165        191
  72.7363        200
  72.7562        217
  72.7761        224
  72.7960        227
  72.8159        222
  72.8358        214
  72.8557        233
  72.8755        227
  72.8954        249
  72.9153        232
  72.9352        229
  72.9551        230
  72.9750        211
  72.9948        245
  73.0147        211
  73.0346        223
  73.0545        212
  73.0744        207
  73.0943        206
  73.1142        198
  73.1340        207
  73.1539        191
  73.1738        203
  73.1937        206
  73.2136        204
  73.2335        224
  73.2534        210
  73.2732        204
  73.2931        181
  73.3130        205
  73.3329        189
  73.3528        189
  73.3727        190
  73.3925        181
  73.4124        214
  73.4323        190
  73.4522        229
  73.4721        213
  73.4920        182
  73.5119        185
  73.5317        200
  73.5516        198
  73.5715        194
  73.5914        181
  73.6113        165
  73.6312        192
  73.6510        194
  73.6709        174
  73.6908        200
  73.7107        189
  73.7306        198
  73.7505        213
  73.7704        199
  73.7902        204
  73.8101        193
  73.8300        231
  73.8499        205
  73.8698        180
  73.8897        195
  73.9096        195
  73.9294        193
  73.9493        203
  73.9692        204
  73.9891        222
  74.0090        204
  74.0289        223
  74.0487        243
  74.0686        212
  74.0885        227
  74.1084        228
  74.1283        258
  74.1482        225
  74.1681        232
  74.1879        234
  74.2078        248
  74.2277        246
  74.2476        265
  74.2675        246
  74.2874        245
  74.3073        250
  74.3271        250
  74.3470        258
  74.3669        280
  74.3868        249
  74.4067        236
  74.4266        257
  74.4464        227
  74.4663        240
  74.4862        235
  74.5061        264
  74.5260        222
  74.5459        225
  74.5658        216
  74.5856        247
  74.6055        232
  74.6254        216
  74.6453        214
  74.6652        215
  74.6851        197
  74.7049        199
  74.7248        227
  74.7447        197
  74.7646        200
  74.7845        185
  74.8044        190
  74.8243        175
  74.8441        183
  74.8640        170
  74.8839        183
  74.9038        192
  74.9237        194
  74.9436        188
  74.9635        182
  74.9833        172
  75.0032        192
  75.0231        168
  75.0430        176
  75.0629        198
  75.0828        194
  75.1026        225
  75.1225        185
  75.1424        185
  75.1623        165
  75.1822        209
  75.2021        198
  75.2220        193
  75.2418        189
  75.2617        211
  75.2816        195
  75.3015        223
  75.3214        227
  75.3413        216
  75.3612        219
  75.3810        194
  75.4009        214
  75.4208        183
  75.4407        208
  75.4606        203
  75.4805        205
  75.5003        219
  75.5202        219
  75.5401        205
  75.5600        208
  75.5799        216
  75.5998        221
  75.6197        222
  75.6395        212
  75.6594        201
  75.6793        216
  75.6992        197
  75.7191        213
  75.7390        220
  75.7588        208
  75.7787        213
  75.7986        208
  75.8185        192
  75.8384        209
  75.8583        218
  75.8782        205
  75.8980        226
  75.9179        185
  75.9378        170
  75.9577        180
  75.9776        209
  75.9975        199
  76.0174        214
  76.0372        216
  76.0571        176
  76.0770        205
  76.0969        189
  76.1168        198
  76.1367        220
  76.1565        195
  76.1764        190
  76.1963        212
  76.2162        209
  76.2361        218
  76.2560        196
  76.2759        212
  76.2957        190
  76.3156        202
  76.3355        194
  76.3554        239
  76.3753        243
  76.3952        247
  76.4151        231
  76.4349        209
  76.4548        246
  76.4747        239
  76.4946        229
  76.5145        263
  76.5344        245
  76.5542        227
  76.5741        241
  76.5940        229
  76.6139        231
  76.6338        259
  76.6537        243
  76.6736        247
  76.6934        270
  76.7133        245
  76.7332        238
  76.7531        260
  76.7730        226
  76.7929        263
  76.8127        229
  76.8326        240
  76.8525        276
  76.8724        277
  76.8923        234
  76.9122        227
  76.9321        271
  76.9519        262
  76.9718        235
  76.9917        250
  77.0116        248
  77.0315        251
  77.0514        262
  77.0713        234
  77.0911        237
  77.1110        241
  77.1309        245
  77.1508        217
  77.1707        237
  77.1906        220
  77.2104        265
  77.2303        238
  77.2502        259
  77.2701        248
  77.2900        260
  77.3099        235
  77.3298        233
  77.3496        270
  77.3695        238
  77.3894        246
  77.4093        224
  77.4292        259
  77.4491        233
  77.4690        248
  77.4888        217
  77.5087        228
  77.5286        250
  77.5485        209
  77.5684        250
  77.5883        199
  77.6081        247
  77.6280        252
  77.6479        265
  77.6678        222
  77.6877        268
  77.7076        256
  77.7275        246
  77.7473        239
  77.7672        264
  77.7871        274
  77.8070        270
  77.8269        301
  77.8468        283
  77.8666        248
  77.8865        276
  77.9064        252
  77.9263        279
  77.9462        257
  77.9661        306
  77.9860        286
  78.0058        233
  78.0257        253
  78.0456        260
  78.0655        257
  78.0854        254
  78.1053        266
  78.1252        254
  78.1450        266
  78.1649        259
  78.1848        237
  78.2047        239
  78.2246        209
  78.2445        219
  78.2643        270
  78.2842        211
  78.3041        253
  78.3240        258
  78.3439        255
  78.3638        254
  78.3837        271
  78.4035        251
  78.4234        218
  78.4433        236
  78.4632        224
  78.4831        214
  78.5030        250
  78.5229        205
  78.5427        218
  78.5626        224
  78.5825        205
  78.6024        207
  78.6223        217
  78.6422        208
  78.6620        210
  78.6819        242
  78.7018        224
  78.7217        214
  78.7416        232
  78.7615        220
  78.7814        221
  78.8012        181
  78.8211        213
  78.8410        210
  78.8609        189
  78.8808        204
  78.9007        202
  78.9205        185
  78.9404        208
  78.9603        204
  78.9802        198
  79.0001        184
  79.0200        173
  79.0399        181
  79.0597        205
  79.0796        185
  79.0995        183
  79.1194        174
  79.1393        208
  79.1592        205
  79.1791        186
  79.1989        196
  79.2188        204
  79.2387        169
  79.2586        192
  79.2785        196
  79.2984        171
  79.3182        175
  79.3381        200
  79.3580        191
  79.3779        195
  79.3978        191
  79.4177        181
  79.4376        179
  79.4574        197
  79.4773        184
  79.4972        202
  79.5171        187
  79.5370        195
  79.5569        182
  79.5767        169
  79.5966        192
  79.6165        187
  79.6364        175
  79.6563        203
  79.6762        167
  79.6961        170
  79.7159        188
  79.7358        191
  79.7557        216
  79.7756        191
  79.7955        220
  79.8154        165
  79.8353        190
  79.8551        167
  79.8750        187
  79.8949        192
  79.9148        209
  79.9347        171
  79.9546        170
  79.9744        187
  79.9943        173
