; (content of file E:\SAIF User Data\2019\Adrine Correya RS,ISP,CUSAT\190711G\SAIFXR190711G-03(C).raw)
_FILEVERSION = 2
_SAMPLE = C
_+SAMPLE = 
_SITE = "Cochin Uni"
_USER = "Cochin Uni"
_GONIOMETER_CODE = 20
; Goniometer : D8 theta/2theta, stage : Unknown
_SAMPLE_CHANGER_CODE = 0
_ATTACHMENTS_CODE = 0
_GONIOMETER_RADIUS = 217.5
_FIXED_DIVSLIT = 0.15
_FIXED_SAMPLESLIT = 1
_SOLLER_SLITS = 2
_FIXED_DETSLIT = 1
_MONOCHROMATOR = 0
; Incident beam monochromator : None
_THIN_FILM = N
_BETA_FILTER = N
_FIXED_ANTISLIT = 0.15
_ANALYZER_CODE = 0
; Received beam analyzer : None
_DATEMEASURED = "15-Jul-2019 15:59:39"
_WL_UNIT = A
_WL1 = 1.5406
_WL2 = 1.54439
_WL3 = 1.39222
_WLRATIO = 0.5
_ANODE = Cu

; Data for range 1
_DRIVE = COUPLED
_STEPTIME = 59.67
_STEPSIZE = 0.0198849
_STEPMODE = C
_START = 3
_THETA = 1.5
_2THETA = 3
_KHI = 0
_PHI = 0
_X = 0
_Y = 0
_Z = 0
_DETECTOR = 5
; Detector type : Unknown
_DETECTORSLIT = out
_AUX1 = 0
_AUX2 = 0
_AUX3 = 0
_TIMESTARTED = 16
_TEMP_RATE = -1
_TEMP_DELAY = -1
_KV = 40
_MA = 40
_RANGE_WL = 1.5406
_3DPLANE = 0
_V4_COUNTERS_MASK = 4096
_V4_DRIVES_MASK = 0
_V4_ENCODERS_MASK = 0
_2THETACOUNTS = 1
; 2THETA  PSD
   3.0000       2304
   3.0199       2198
   3.0398       2329
   3.0597       2238
   3.0795       2195
   3.0994       2232
   3.1193       2222
   3.1392       2122
   3.1591       2086
   3.1790       2145
   3.1988       2031
   3.2187       2025
   3.2386       1906
   3.2585       1935
   3.2784       1966
   3.2983       1986
   3.3182       1863
   3.3380       1843
   3.3579       1842
   3.3778       1856
   3.3977       1828
   3.4176       1834
   3.4375       1830
   3.4574       1758
   3.4772       1774
   3.4971       1789
   3.5170       1674
   3.5369       1692
   3.5568       1653
   3.5767       1741
   3.5965       1698
   3.6164       1695
   3.6363       1622
   3.6562       1619
   3.6761       1640
   3.6960       1579
   3.7159       1620
   3.7357       1579
   3.7556       1597
   3.7755       1496
   3.7954       1477
   3.8153       1580
   3.8352       1543
   3.8551       1533
   3.8749       1515
   3.8948       1477
   3.9147       1548
   3.9346       1519
   3.9545       1464
   3.9744       1487
   3.9942       1544
   4.0141       1378
   4.0340       1490
   4.0539       1491
   4.0738       1499
   4.0937       1457
   4.1136       1481
   4.1334       1493
   4.1533       1400
   4.1732       1455
   4.1931       1430
   4.2130       1393
   4.2329       1414
   4.2527       1440
   4.2726       1408
   4.2925       1468
   4.3124       1408
   4.3323       1457
   4.3522       1434
   4.3721       1322
   4.3919       1362
   4.4118       1416
   4.4317       1341
   4.4516       1415
   4.4715       1346
   4.4914       1324
   4.5113       1370
   4.5311       1386
   4.5510       1368
   4.5709       1388
   4.5908       1302
   4.6107       1353
   4.6306       1279
   4.6504       1315
   4.6703       1305
   4.6902       1304
   4.7101       1266
   4.7300       1274
   4.7499       1330
   4.7698       1332
   4.7896       1338
   4.8095       1312
   4.8294       1240
   4.8493       1253
   4.8692       1307
   4.8891       1311
   4.9090       1312
   4.9288       1281
   4.9487       1210
   4.9686       1287
   4.9885       1259
   5.0084       1226
   5.0283       1294
   5.0481       1238
   5.0680       1221
   5.0879       1208
   5.1078       1249
   5.1277       1268
   5.1476       1174
   5.1675       1301
   5.1873       1230
   5.2072       1228
   5.2271       1180
   5.2470       1255
   5.2669       1270
   5.2868       1284
   5.3066       1183
   5.3265       1219
   5.3464       1255
   5.3663       1191
   5.3862       1130
   5.4061       1136
   5.4260       1162
   5.4458       1204
   5.4657       1196
   5.4856       1189
   5.5055       1198
   5.5254       1165
   5.5453       1125
   5.5652       1143
   5.5850       1117
   5.6049       1145
   5.6248       1185
   5.6447       1154
   5.6646       1087
   5.6845       1156
   5.7043       1107
   5.7242       1125
   5.7441       1138
   5.7640       1088
   5.7839       1160
   5.8038       1118
   5.8237       1073
   5.8435       1101
   5.8634       1082
   5.8833       1120
   5.9032       1088
   5.9231       1103
   5.9430       1064
   5.9629       1088
   5.9827       1078
   6.0026       1049
   6.0225       1125
   6.0424       1081
   6.0623       1064
   6.0822       1118
   6.1020       1111
   6.1219       1101
   6.1418       1059
   6.1617       1068
   6.1816       1027
   6.2015       1026
   6.2214       1012
   6.2412       1078
   6.2611       1105
   6.2810       1092
   6.3009       1040
   6.3208       1075
   6.3407       1042
   6.3605       1077
   6.3804       1114
   6.4003       1011
   6.4202       1060
   6.4401       1042
   6.4600       1012
   6.4799        990
   6.4997       1001
   6.5196       1025
   6.5395        988
   6.5594        980
   6.5793       1015
   6.5992        996
   6.6191        997
   6.6389       1013
   6.6588        996
   6.6787        953
   6.6986       1005
   6.7185        977
   6.7384        955
   6.7582        959
   6.7781       1007
   6.7980        936
   6.8179        998
   6.8378       1015
   6.8577       1039
   6.8776       1001
   6.8974       1005
   6.9173        975
   6.9372        990
   6.9571        999
   6.9770        997
   6.9969        908
   7.0167        949
   7.0366        924
   7.0565        910
   7.0764        960
   7.0963        915
   7.1162        925
   7.1361        914
   7.1559        967
   7.1758        914
   7.1957        976
   7.2156        950
   7.2355        947
   7.2554        929
   7.2753        970
   7.2951        950
   7.3150       1012
   7.3349        950
   7.3548        988
   7.3747       1008
   7.3946       1007
   7.4144       1059
   7.4343       1069
   7.4542       1034
   7.4741        918
   7.4940       1008
   7.5139       1007
   7.5338        993
   7.5536       1011
   7.5735        927
   7.5934        944
   7.6133        933
   7.6332        959
   7.6531        926
   7.6730        917
   7.6928        938
   7.7127        905
   7.7326        942
   7.7525        863
   7.7724        922
   7.7923        899
   7.8121        889
   7.8320        892
   7.8519        882
   7.8718        867
   7.8917        923
   7.9116        872
   7.9315        885
   7.9513        843
   7.9712        873
   7.9911        876
   8.0110        822
   8.0309        844
   8.0508        905
   8.0706        870
   8.0905        897
   8.1104        840
   8.1303        869
   8.1502        926
   8.1701        942
   8.1900        930
   8.2098        834
   8.2297        819
   8.2496        805
   8.2695        836
   8.2894        865
   8.3093        856
   8.3292        855
   8.3490        846
   8.3689        843
   8.3888        851
   8.4087        845
   8.4286        859
   8.4485        820
   8.4683        813
   8.4882        806
   8.5081        825
   8.5280        792
   8.5479        826
   8.5678        832
   8.5877        832
   8.6075        827
   8.6274        820
   8.6473        848
   8.6672        863
   8.6871        780
   8.7070        833
   8.7269        832
   8.7467        811
   8.7666        801
   8.7865        830
   8.8064        839
   8.8263        771
   8.8462        790
   8.8660        791
   8.8859        821
   8.9058        815
   8.9257        795
   8.9456        829
   8.9655        804
   8.9854        772
   9.0052        806
   9.0251        764
   9.0450        848
   9.0649        824
   9.0848        777
   9.1047        781
   9.1245        774
   9.1444        765
   9.1643        806
   9.1842        779
   9.2041        824
   9.2240        773
   9.2439        827
   9.2637        805
   9.2836        802
   9.3035        808
   9.3234        829
   9.3433        773
   9.3632        760
   9.3831        801
   9.4029        823
   9.4228        787
   9.4427        758
   9.4626        749
   9.4825        740
   9.5024        742
   9.5222        755
   9.5421        769
   9.5620        781
   9.5819        780
   9.6018        788
   9.6217        757
   9.6416        733
   9.6614        732
   9.6813        804
   9.7012        774
   9.7211        735
   9.7410        722
   9.7609        789
   9.7808        772
   9.8006        786
   9.8205        760
   9.8404        784
   9.8603        760
   9.8802        752
   9.9001        740
   9.9199        803
   9.9398        821
   9.9597        711
   9.9796        759
   9.9995        749
  10.0194        770
  10.0393        742
  10.0591        787
  10.0790        718
  10.0989        778
  10.1188        740
  10.1387        791
  10.1586        728
  10.1784        776
  10.1983        768
  10.2182        760
  10.2381        710
  10.2580        777
  10.2779        754
  10.2978        796
  10.3176        770
  10.3375        801
  10.3574        801
  10.3773        778
  10.3972        766
  10.4171        844
  10.4370        803
  10.4568        798
  10.4767        801
  10.4966        779
  10.5165        765
  10.5364        855
  10.5563        947
  10.5761        956
  10.5960       1036
  10.6159        988
  10.6358       1070
  10.6557       1082
  10.6756       1071
  10.6955       1113
  10.7153       1006
  10.7352        978
  10.7551       1004
  10.7750        909
  10.7949        887
  10.8148        915
  10.8347        836
  10.8545        817
  10.8744        808
  10.8943        843
  10.9142        776
  10.9341        774
  10.9540        769
  10.9738        707
  10.9937        755
  11.0136        737
  11.0335        768
  11.0534        766
  11.0733        744
  11.0932        774
  11.1130        749
  11.1329        734
  11.1528        773
  11.1727        760
  11.1926        742
  11.2125        747
  11.2323        739
  11.2522        688
  11.2721        755
  11.2920        752
  11.3119        746
  11.3318        722
  11.3517        802
  11.3715        777
  11.3914        761
  11.4113        767
  11.4312        764
  11.4511        710
  11.4710        751
  11.4909        742
  11.5107        762
  11.5306        759
  11.5505        727
  11.5704        758
  11.5903        779
  11.6102        778
  11.6300        755
  11.6499        688
  11.6698        773
  11.6897        723
  11.7096        732
  11.7295        760
  11.7494        738
  11.7692        754
  11.7891        790
  11.8090        757
  11.8289        709
  11.8488        779
  11.8687        780
  11.8886        720
  11.9084        788
  11.9283        709
  11.9482        797
  11.9681        710
  11.9880        735
  12.0079        745
  12.0277        693
  12.0476        687
  12.0675        692
  12.0874        793
  12.1073        719
  12.1272        717
  12.1471        712
  12.1669        715
  12.1868        767
  12.2067        717
  12.2266        717
  12.2465        723
  12.2664        684
  12.2862        757
  12.3061        710
  12.3260        708
  12.3459        660
  12.3658        719
  12.3857        725
  12.4056        738
  12.4254        711
  12.4453        726
  12.4652        684
  12.4851        745
  12.5050        733
  12.5249        692
  12.5448        719
  12.5646        691
  12.5845        760
  12.6044        704
  12.6243        692
  12.6442        752
  12.6641        691
  12.6839        741
  12.7038        735
  12.7237        703
  12.7436        725
  12.7635        697
  12.7834        726
  12.8033        688
  12.8231        707
  12.8430        687
  12.8629        685
  12.8828        655
  12.9027        658
  12.9226        704
  12.9425        700
  12.9623        692
  12.9822        746
  13.0021        660
  13.0220        683
  13.0419        697
  13.0618        749
  13.0816        750
  13.1015        712
  13.1214        699
  13.1413        768
  13.1612        746
  13.1811        719
  13.2010        733
  13.2208        635
  13.2407        654
  13.2606        707
  13.2805        702
  13.3004        657
  13.3203        641
  13.3401        657
  13.3600        659
  13.3799        699
  13.3998        655
  13.4197        682
  13.4396        650
  13.4595        664
  13.4793        633
  13.4992        645
  13.5191        615
  13.5390        597
  13.5589        679
  13.5788        601
  13.5987        673
  13.6185        634
  13.6384        635
  13.6583        590
  13.6782        639
  13.6981        621
  13.7180        635
  13.7378        594
  13.7577        632
  13.7776        589
  13.7975        643
  13.8174        594
  13.8373        645
  13.8572        615
  13.8770        613
  13.8969        631
  13.9168        649
  13.9367        616
  13.9566        621
  13.9765        631
  13.9963        611
  14.0162        588
  14.0361        594
  14.0560        630
  14.0759        624
  14.0958        530
  14.1157        599
  14.1355        594
  14.1554        587
  14.1753        607
  14.1952        582
  14.2151        543
  14.2350        588
  14.2549        579
  14.2747        571
  14.2946        588
  14.3145        595
  14.3344        605
  14.3543        598
  14.3742        569
  14.3940        627
  14.4139        657
  14.4338        582
  14.4537        658
  14.4736        621
  14.4935        572
  14.5134        577
  14.5332        617
  14.5531        639
  14.5730        676
  14.5929        678
  14.6128        706
  14.6327        711
  14.6526        704
  14.6724        700
  14.6923        710
  14.7122        683
  14.7321        691
  14.7520        675
  14.7719        640
  14.7917        656
  14.8116        616
  14.8315        617
  14.8514        576
  14.8713        554
  14.8912        572
  14.9111        599
  14.9309        579
  14.9508        560
  14.9707        543
  14.9906        531
  15.0105        584
  15.0304        546
  15.0502        524
  15.0701        585
  15.0900        568
  15.1099        590
  15.1298        547
  15.1497        560
  15.1696        588
  15.1894        562
  15.2093        557
  15.2292        565
  15.2491        573
  15.2690        583
  15.2889        556
  15.3088        545
  15.3286        562
  15.3485        577
  15.3684        524
  15.3883        563
  15.4082        548
  15.4281        608
  15.4479        489
  15.4678        553
  15.4877        558
  15.5076        551
  15.5275        550
  15.5474        528
  15.5673        554
  15.5871        538
  15.6070        566
  15.6269        506
  15.6468        540
  15.6667        520
  15.6866        515
  15.7065        532
  15.7263        569
  15.7462        578
  15.7661        538
  15.7860        543
  15.8059        607
  15.8258        581
  15.8456        597
  15.8655        607
  15.8854        637
  15.9053        627
  15.9252        664
  15.9451        709
  15.9650        762
  15.9848        771
  16.0047        906
  16.0246       1010
  16.0445       1069
  16.0644       1143
  16.0843       1037
  16.1041        967
  16.1240        878
  16.1439        753
  16.1638        740
  16.1837        639
  16.2036        669
  16.2235        619
  16.2433        576
  16.2632        579
  16.2831        602
  16.3030        582
  16.3229        519
  16.3428        555
  16.3627        529
  16.3825        516
  16.4024        516
  16.4223        523
  16.4422        542
  16.4621        521
  16.4820        533
  16.5018        507
  16.5217        588
  16.5416        543
  16.5615        493
  16.5814        521
  16.6013        518
  16.6212        503
  16.6410        504
  16.6609        463
  16.6808        518
  16.7007        476
  16.7206        473
  16.7405        449
  16.7604        478
  16.7802        525
  16.8001        492
  16.8200        532
  16.8399        482
  16.8598        477
  16.8797        515
  16.8995        496
  16.9194        495
  16.9393        488
  16.9592        521
  16.9791        459
  16.9990        499
  17.0189        450
  17.0387        503
  17.0586        513
  17.0785        471
  17.0984        459
  17.1183        462
  17.1382        452
  17.1580        483
  17.1779        464
  17.1978        478
  17.2177        492
  17.2376        505
  17.2575        503
  17.2774        488
  17.2972        495
  17.3171        523
  17.3370        456
  17.3569        467
  17.3768        464
  17.3967        478
  17.4166        454
  17.4364        487
  17.4563        504
  17.4762        453
  17.4961        476
  17.5160        449
  17.5359        516
  17.5557        469
  17.5756        490
  17.5955        457
  17.6154        462
  17.6353        484
  17.6552        435
  17.6751        459
  17.6949        496
  17.7148        471
  17.7347        438
  17.7546        440
  17.7745        455
  17.7944        455
  17.8143        475
  17.8341        457
  17.8540        453
  17.8739        450
  17.8938        445
  17.9137        467
  17.9336        485
  17.9534        469
  17.9733        452
  17.9932        445
  18.0131        453
  18.0330        459
  18.0529        458
  18.0728        459
  18.0926        462
  18.1125        449
  18.1324        486
  18.1523        488
  18.1722        503
  18.1921        449
  18.2119        481
  18.2318        474
  18.2517        424
  18.2716        469
  18.2915        482
  18.3114        505
  18.3313        474
  18.3511        449
  18.3710        506
  18.3909        525
  18.4108        471
  18.4307        459
  18.4506        468
  18.4705        495
  18.4903        486
  18.5102        469
  18.5301        513
  18.5500        467
  18.5699        469
  18.5898        496
  18.6096        454
  18.6295        485
  18.6494        464
  18.6693        442
  18.6892        425
  18.7091        446
  18.7290        441
  18.7488        492
  18.7687        433
  18.7886        456
  18.8085        452
  18.8284        458
  18.8483        452
  18.8682        416
  18.8880        460
  18.9079        436
  18.9278        441
  18.9477        431
  18.9676        482
  18.9875        447
  19.0073        449
  19.0272        431
  19.0471        436
  19.0670        411
  19.0869        427
  19.1068        438
  19.1267        469
  19.1465        401
  19.1664        436
  19.1863        480
  19.2062        431
  19.2261        439
  19.2460        462
  19.2658        468
  19.2857        427
  19.3056        430
  19.3255        407
  19.3454        436
  19.3653        417
  19.3852        406
  19.4050        423
  19.4249        483
  19.4448        430
  19.4647        452
  19.4846        481
  19.5045        473
  19.5244        475
  19.5442        460
  19.5641        446
  19.5840        441
  19.6039        437
  19.6238        453
  19.6437        442
  19.6635        428
  19.6834        418
  19.7033        413
  19.7232        414
  19.7431        410
  19.7630        434
  19.7829        438
  19.8027        443
  19.8226        428
  19.8425        436
  19.8624        410
  19.8823        417
  19.9022        443
  19.9220        398
  19.9419        410
  19.9618        415
  19.9817        414
  20.0016        428
  20.0215        404
  20.0414        442
  20.0612        393
  20.0811        420
  20.1010        416
  20.1209        430
  20.1408        429
  20.1607        381
  20.1806        389
  20.2004        429
  20.2203        432
  20.2402        444
  20.2601        427
  20.2800        416
  20.2999        426
  20.3197        426
  20.3396        403
  20.3595        423
  20.3794        419
  20.3993        381
  20.4192        397
  20.4391        389
  20.4589        422
  20.4788        401
  20.4987        410
  20.5186        458
  20.5385        415
  20.5584        415
  20.5783        393
  20.5981        432
  20.6180        436
  20.6379        401
  20.6578        381
  20.6777        420
  20.6976        411
  20.7174        432
  20.7373        432
  20.7572        418
  20.7771        426
  20.7970        424
  20.8169        441
  20.8368        410
  20.8566        446
  20.8765        393
  20.8964        358
  20.9163        417
  20.9362        421
  20.9561        447
  20.9759        417
  20.9958        400
  21.0157        380
  21.0356        396
  21.0555        405
  21.0754        409
  21.0953        422
  21.1151        440
  21.1350        399
  21.1549        425
  21.1748        446
  21.1947        434
  21.2146        438
  21.2345        409
  21.2543        423
  21.2742        424
  21.2941        440
  21.3140        412
  21.3339        436
  21.3538        431
  21.3736        446
  21.3935        512
  21.4134        498
  21.4333        529
  21.4532        619
  21.4731        646
  21.4930        676
  21.5128        747
  21.5327        771
  21.5526        716
  21.5725        626
  21.5924        610
  21.6123        564
  21.6322        480
  21.6520        491
  21.6719        472
  21.6918        482
  21.7117        465
  21.7316        435
  21.7515        422
  21.7713        425
  21.7912        466
  21.8111        385
  21.8310        385
  21.8509        414
  21.8708        426
  21.8907        359
  21.9105        429
  21.9304        453
  21.9503        412
  21.9702        385
  21.9901        412
  22.0100        403
  22.0298        415
  22.0497        419
  22.0696        378
  22.0895        402
  22.1094        442
  22.1293        419
  22.1492        435
  22.1690        393
  22.1889        447
  22.2088        381
  22.2287        401
  22.2486        411
  22.2685        392
  22.2884        415
  22.3082        440
  22.3281        407
  22.3480        402
  22.3679        407
  22.3878        448
  22.4077        421
  22.4275        415
  22.4474        444
  22.4673        465
  22.4872        453
  22.5071        395
  22.5270        435
  22.5469        453
  22.5667        471
  22.5866        491
  22.6065        465
  22.6264        500
  22.6463        504
  22.6662        496
  22.6861        510
  22.7059        519
  22.7258        493
  22.7457        516
  22.7656        504
  22.7855        523
  22.8054        516
  22.8252        506
  22.8451        524
  22.8650        527
  22.8849        588
  22.9048        539
  22.9247        556
  22.9446        591
  22.9644        613
  22.9843        632
  23.0042        620
  23.0241        684
  23.0440        717
  23.0639        735
  23.0837        829
  23.1036        979
  23.1235       1251
  23.1434       1514
  23.1633       1722
  23.1832       1748
  23.2031       1575
  23.2229       1529
  23.2428       1218
  23.2627       1021
  23.2826        884
  23.3025        734
  23.3224        741
  23.3423        678
  23.3621        631
  23.3820        638
  23.4019        595
  23.4218        665
  23.4417        616
  23.4616        585
  23.4814        593
  23.5013        608
  23.5212        589
  23.5411        649
  23.5610        643
  23.5809        607
  23.6008        664
  23.6206        625
  23.6405        669
  23.6604        716
  23.6803        702
  23.7002        676
  23.7201        702
  23.7400        700
  23.7598        676
  23.7797        676
  23.7996        688
  23.8195        712
  23.8394        651
  23.8593        645
  23.8791        658
  23.8990        667
  23.9189        655
  23.9388        644
  23.9587        636
  23.9786        622
  23.9985        621
  24.0183        575
  24.0382        582
  24.0581        607
  24.0780        568
  24.0979        589
  24.1178        587
  24.1376        536
  24.1575        508
  24.1774        519
  24.1973        471
  24.2172        523
  24.2371        542
  24.2570        524
  24.2768        504
  24.2967        505
  24.3166        499
  24.3365        513
  24.3564        523
  24.3763        578
  24.3962        564
  24.4160        571
  24.4359        541
  24.4558        575
  24.4757        537
  24.4956        551
  24.5155        538
  24.5353        516
  24.5552        482
  24.5751        484
  24.5950        456
  24.6149        491
  24.6348        460
  24.6547        418
  24.6745        485
  24.6944        491
  24.7143        472
  24.7342        426
  24.7541        436
  24.7740        449
  24.7939        480
  24.8137        468
  24.8336        471
  24.8535        463
  24.8734        434
  24.8933        431
  24.9132        435
  24.9330        452
  24.9529        461
  24.9728        453
  24.9927        452
  25.0126        416
  25.0325        454
  25.0524        450
  25.0722        468
  25.0921        462
  25.1120        442
  25.1319        457
  25.1518        424
  25.1717        430
  25.1915        457
  25.2114        450
  25.2313        423
  25.2512        497
  25.2711        441
  25.2910        465
  25.3109        436
  25.3307        461
  25.3506        461
  25.3705        424
  25.3904        501
  25.4103        473
  25.4302        437
  25.4501        472
  25.4699        507
  25.4898        467
  25.5097        447
  25.5296        454
  25.5495        486
  25.5694        508
  25.5892        463
  25.6091        504
  25.6290        508
  25.6489        449
  25.6688        476
  25.6887        501
  25.7086        475
  25.7284        464
  25.7483        470
  25.7682        460
  25.7881        472
  25.8080        440
  25.8279        429
  25.8478        479
  25.8676        445
  25.8875        463
  25.9074        503
  25.9273        436
  25.9472        436
  25.9671        454
  25.9869        451
  26.0068        418
  26.0267        484
  26.0466        474
  26.0665        447
  26.0864        451
  26.1063        429
  26.1261        448
  26.1460        496
  26.1659        435
  26.1858        441
  26.2057        444
  26.2256        467
  26.2454        473
  26.2653        459
  26.2852        471
  26.3051        446
  26.3250        468
  26.3449        492
  26.3648        460
  26.3846        500
  26.4045        515
  26.4244        530
  26.4443        529
  26.4642        524
  26.4841        524
  26.5040        465
  26.5238        510
  26.5437        469
  26.5636        512
  26.5835        557
  26.6034        530
  26.6233        535
  26.6431        575
  26.6630        538
  26.6829        573
  26.7028        662
  26.7227        711
  26.7426        714
  26.7625        697
  26.7823        710
  26.8022        696
  26.8221        613
  26.8420        632
  26.8619        669
  26.8818        626
  26.9016        629
  26.9215        589
  26.9414        626
  26.9613        630
  26.9812        606
  27.0011        616
  27.0210        647
  27.0408        622
  27.0607        569
  27.0806        667
  27.1005        631
  27.1204        676
  27.1403        690
  27.1602        692
  27.1800        705
  27.1999        725
  27.2198        763
  27.2397        833
  27.2596        806
  27.2795        898
  27.2993        903
  27.3192       1001
  27.3391       1044
  27.3590       1165
  27.3789       1320
  27.3988       1405
  27.4187       1469
  27.4385       1671
  27.4584       1759
  27.4783       1778
  27.4982       1852
  27.5181       1895
  27.5380       1806
  27.5579       1650
  27.5777       1727
  27.5976       1615
  27.6175       1548
  27.6374       1482
  27.6573       1291
  27.6772       1203
  27.6970       1185
  27.7169       1203
  27.7368       1144
  27.7567       1137
  27.7766       1180
  27.7965       1146
  27.8164       1201
  27.8362       1163
  27.8561       1117
  27.8760       1105
  27.8959       1051
  27.9158        957
  27.9357        945
  27.9555        877
  27.9754        911
  27.9953        815
  28.0152        814
  28.0351        853
  28.0550        802
  28.0749        779
  28.0947        746
  28.1146        780
  28.1345        786
  28.1544        808
  28.1743        758
  28.1942        758
  28.2141        721
  28.2339        733
  28.2538        771
  28.2737        731
  28.2936        728
  28.3135        742
  28.3334        776
  28.3532        767
  28.3731        806
  28.3930        819
  28.4129        857
  28.4328        850
  28.4527        842
  28.4726        801
  28.4924        794
  28.5123        798
  28.5322        802
  28.5521        763
  28.5720        759
  28.5919        770
  28.6118        771
  28.6316        756
  28.6515        721
  28.6714        690
  28.6913        777
  28.7112        667
  28.7311        732
  28.7509        703
  28.7708        735
  28.7907        706
  28.8106        733
  28.8305        763
  28.8504        749
  28.8703        755
  28.8901        720
  28.9100        732
  28.9299        772
  28.9498        762
  28.9697        794
  28.9896        831
  29.0094        843
  29.0293        789
  29.0492        804
  29.0691        770
  29.0890        830
  29.1089        809
  29.1288        834
  29.1486        858
  29.1685        842
  29.1884        852
  29.2083        876
  29.2282        918
  29.2481        925
  29.2680        956
  29.2878        922
  29.3077        931
  29.3276        952
  29.3475        976
  29.3674        966
  29.3873       1001
  29.4071       1060
  29.4270       1078
  29.4469       1140
  29.4668       1106
  29.4867       1143
  29.5066       1199
  29.5265       1270
  29.5463       1249
  29.5662       1334
  29.5861       1457
  29.6060       1542
  29.6259       1585
  29.6458       1646
  29.6657       1781
  29.6855       1839
  29.7054       2002
  29.7253       2046
  29.7452       2147
  29.7651       2211
  29.7850       2443
  29.8048       2624
  29.8247       3019
  29.8446       3459
  29.8645       4229
  29.8844       5313
  29.9043       6035
  29.9242       6221
  29.9440       5808
  29.9639       5347
  29.9838       4945
  30.0037       4272
  30.0236       3616
  30.0435       2957
  30.0633       2505
  30.0832       2045
  30.1031       1805
  30.1230       1586
  30.1429       1467
  30.1628       1378
  30.1827       1299
  30.2025       1236
  30.2224       1169
  30.2423       1154
  30.2622       1100
  30.2821       1067
  30.3020       1055
  30.3219       1059
  30.3417        931
  30.3616        952
  30.3815        999
  30.4014        959
  30.4213        998
  30.4412        942
  30.4610        892
  30.4809       1007
  30.5008        958
  30.5207        960
  30.5406        941
  30.5605        952
  30.5804        943
  30.6002        855
  30.6201        791
  30.6400        825
  30.6599        792
  30.6798        742
  30.6997        722
  30.7196        714
  30.7394        716
  30.7593        738
  30.7792        657
  30.7991        646
  30.8190        590
  30.8389        672
  30.8587        684
  30.8786        614
  30.8985        587
  30.9184        590
  30.9383        596
  30.9582        633
  30.9781        568
  30.9979        595
  31.0178        551
  31.0377        573
  31.0576        579
  31.0775        506
  31.0974        575
  31.1172        551
  31.1371        560
  31.1570        506
  31.1769        505
  31.1968        524
  31.2167        530
  31.2366        546
  31.2564        523
  31.2763        493
  31.2962        480
  31.3161        524
  31.3360        521
  31.3559        497
  31.3758        483
  31.3956        523
  31.4155        445
  31.4354        513
  31.4553        515
  31.4752        481
  31.4951        536
  31.5149        483
  31.5348        504
  31.5547        513
  31.5746        545
  31.5945        465
  31.6144        528
  31.6343        536
  31.6541        529
  31.6740        541
  31.6939        502
  31.7138        464
  31.7337        493
  31.7536        496
  31.7735        484
  31.7933        512
  31.8132        528
  31.8331        526
  31.8530        475
  31.8729        538
  31.8928        484
  31.9126        530
  31.9325        545
  31.9524        510
  31.9723        545
  31.9922        567
  32.0121        639
  32.0320        598
  32.0518        561
  32.0717        600
  32.0916        601
  32.1115        680
  32.1314        736
  32.1513        789
  32.1711        822
  32.1910        821
  32.2109        813
  32.2308        848
  32.2507        920
  32.2706        915
  32.2905        964
  32.3103       1020
  32.3302       1042
  32.3501       1146
  32.3700       1120
  32.3899       1191
  32.4098       1178
  32.4297       1183
  32.4495       1271
  32.4694       1323
  32.4893       1346
  32.5092       1402
  32.5291       1450
  32.5490       1506
  32.5688       1408
  32.5887       1454
  32.6086       1523
  32.6285       1633
  32.6484       1708
  32.6683       1965
  32.6882       2180
  32.7080       2194
  32.7279       2102
  32.7478       2008
  32.7677       2022
  32.7876       1902
  32.8075       1774
  32.8273       1668
  32.8472       1545
  32.8671       1534
  32.8870       1508
  32.9069       1664
  32.9268       1713
  32.9467       1762
  32.9665       1549
  32.9864       1393
  33.0063       1284
  33.0262       1183
  33.0461       1049
  33.0660        844
  33.0859        713
  33.1057        680
  33.1256        601
  33.1455        583
  33.1654        574
  33.1853        515
  33.2052        501
  33.2250        520
  33.2449        484
  33.2648        455
  33.2847        431
  33.3046        443
  33.3245        432
  33.3444        482
  33.3642        423
  33.3841        433
  33.4040        446
  33.4239        441
  33.4438        406
  33.4637        429
  33.4836        430
  33.5034        372
  33.5233        418
  33.5432        435
  33.5631        416
  33.5830        382
  33.6029        420
  33.6227        381
  33.6426        410
  33.6625        431
  33.6824        407
  33.7023        419
  33.7222        480
  33.7421        427
  33.7619        449
  33.7818        390
  33.8017        403
  33.8216        395
  33.8415        398
  33.8614        413
  33.8812        395
  33.9011        420
  33.9210        375
  33.9409        402
  33.9608        400
  33.9807        373
  34.0006        415
  34.0204        434
  34.0403        402
  34.0602        456
  34.0801        409
  34.1000        398
  34.1199        408
  34.1398        415
  34.1596        416
  34.1795        412
  34.1994        444
  34.2193        394
  34.2392        439
  34.2591        392
  34.2789        396
  34.2988        426
  34.3187        445
  34.3386        456
  34.3585        450
  34.3784        450
  34.3983        469
  34.4181        476
  34.4380        514
  34.4579        525
  34.4778        526
  34.4977        511
  34.5176        522
  34.5375        536
  34.5573        538
  34.5772        517
  34.5971        464
  34.6170        460
  34.6369        472
  34.6568        424
  34.6766        465
  34.6965        408
  34.7164        444
  34.7363        424
  34.7562        388
  34.7761        384
  34.7960        420
  34.8158        417
  34.8357        439
  34.8556        441
  34.8755        418
  34.8954        388
  34.9153        416
  34.9351        412
  34.9550        397
  34.9749        397
  34.9948        406
  35.0147        396
  35.0346        381
  35.0545        375
  35.0743        392
  35.0942        405
  35.1141        351
  35.1340        386
  35.1539        365
  35.1738        389
  35.1937        416
  35.2135        406
  35.2334        372
  35.2533        373
  35.2732        390
  35.2931        417
  35.3130        421
  35.3328        417
  35.3527        361
  35.3726        401
  35.3925        365
  35.4124        375
  35.4323        339
  35.4522        338
  35.4720        377
  35.4919        344
  35.5118        350
  35.5317        328
  35.5516        372
  35.5715        301
  35.5914        327
  35.6112        370
  35.6311        318
  35.6510        308
  35.6709        321
  35.6908        319
  35.7107        322
  35.7305        334
  35.7504        331
  35.7703        350
  35.7902        340
  35.8101        321
  35.8300        322
  35.8499        331
  35.8697        327
  35.8896        288
  35.9095        328
  35.9294        305
  35.9493        322
  35.9692        307
  35.9890        336
  36.0089        308
  36.0288        289
  36.0487        314
  36.0686        313
  36.0885        320
  36.1084        330
  36.1282        295
  36.1481        274
  36.1680        285
  36.1879        293
  36.2078        303
  36.2277        299
  36.2476        315
  36.2674        284
  36.2873        290
  36.3072        314
  36.3271        289
  36.3470        307
  36.3669        339
  36.3867        340
  36.4066        301
  36.4265        339
  36.4464        335
  36.4663        326
  36.4862        327
  36.5061        314
  36.5259        332
  36.5458        315
  36.5657        323
  36.5856        364
  36.6055        348
  36.6254        374
  36.6453        417
  36.6651        446
  36.6850        463
  36.7049        405
  36.7248        413
  36.7447        405
  36.7646        408
  36.7844        468
  36.8043        429
  36.8242        400
  36.8441        417
  36.8640        433
  36.8839        479
  36.9038        456
  36.9236        398
  36.9435        431
  36.9634        397
  36.9833        387
  37.0032        374
  37.0231        373
  37.0429        345
  37.0628        372
  37.0827        341
  37.1026        336
  37.1225        323
  37.1424        297
  37.1623        345
  37.1821        318
  37.2020        309
  37.2219        351
  37.2418        357
  37.2617        324
  37.2816        295
  37.3015        308
  37.3213        346
  37.3412        297
  37.3611        325
  37.3810        315
  37.4009        313
  37.4208        345
  37.4406        341
  37.4605        387
  37.4804        361
  37.5003        325
  37.5202        332
  37.5401        337
  37.5600        355
  37.5798        355
  37.5997        337
  37.6196        355
  37.6395        399
  37.6594        394
  37.6793        417
  37.6992        396
  37.7190        392
  37.7389        411
  37.7588        435
  37.7787        400
  37.7986        401
  37.8185        381
  37.8383        407
  37.8582        407
  37.8781        397
  37.8980        440
  37.9179        395
  37.9378        393
  37.9577        468
  37.9775        443
  37.9974        456
  38.0173        502
  38.0372        483
  38.0571        501
  38.0770        490
  38.0968        518
  38.1167        501
  38.1366        544
  38.1565        651
  38.1764        663
  38.1963        762
  38.2162        754
  38.2360        715
  38.2559        654
  38.2758        638
  38.2957        666
  38.3156        639
  38.3355        575
  38.3554        521
  38.3752        468
  38.3951        464
  38.4150        435
  38.4349        431
  38.4548        360
  38.4747        403
  38.4945        406
  38.5144        408
  38.5343        381
  38.5542        357
  38.5741        390
  38.5940        366
  38.6139        394
  38.6337        343
  38.6536        341
  38.6735        383
  38.6934        334
  38.7133        354
  38.7332        352
  38.7531        325
  38.7729        354
  38.7928        343
  38.8127        332
  38.8326        335
  38.8525        311
  38.8724        343
  38.8922        326
  38.9121        327
  38.9320        314
  38.9519        308
  38.9718        346
  38.9917        339
  39.0116        339
  39.0314        351
  39.0513        318
  39.0712        333
  39.0911        329
  39.1110        335
  39.1309        348
  39.1507        317
  39.1706        372
  39.1905        378
  39.2104        359
  39.2303        349
  39.2502        395
  39.2701        368
  39.2899        355
  39.3098        381
  39.3297        387
  39.3496        410
  39.3695        369
  39.3894        412
  39.4093        479
  39.4291        460
  39.4490        536
  39.4689        541
  39.4888        683
  39.5087        767
  39.5286        798
  39.5484        794
  39.5683        822
  39.5882        749
  39.6081        803
  39.6280        717
  39.6479        758
  39.6678        794
  39.6876        802
  39.7075        814
  39.7274        879
  39.7473        822
  39.7672        706
  39.7871        712
  39.8069        635
  39.8268        621
  39.8467        610
  39.8666        530
  39.8865        460
  39.9064        470
  39.9263        408
  39.9461        385
  39.9660        371
  39.9859        365
  40.0058        360
  40.0257        364
  40.0456        342
  40.0655        351
  40.0853        354
  40.1052        353
  40.1251        329
  40.1450        318
  40.1649        323
  40.1848        332
  40.2046        306
  40.2245        331
  40.2444        310
  40.2643        306
  40.2842        314
  40.3041        319
  40.3240        303
  40.3438        307
  40.3637        336
  40.3836        312
  40.4035        310
  40.4234        316
  40.4433        334
  40.4632        308
  40.4830        300
  40.5029        318
  40.5228        316
  40.5427        325
  40.5626        260
  40.5825        283
  40.6023        314
  40.6222        285
  40.6421        313
  40.6620        331
  40.6819        270
  40.7018        272
  40.7217        299
  40.7415        276
  40.7614        290
  40.7813        305
  40.8012        343
  40.8211        288
  40.8410        319
  40.8608        299
  40.8807        298
  40.9006        290
  40.9205        284
  40.9404        304
  40.9603        272
  40.9802        296
  41.0000        300
  41.0199        298
  41.0398        328
  41.0597        295
  41.0796        276
  41.0995        287
  41.1194        285
  41.1392        309
  41.1591        334
  41.1790        312
  41.1989        322
  41.2188        342
  41.2387        318
  41.2585        301
  41.2784        296
  41.2983        288
  41.3182        322
  41.3381        305
  41.3580        313
  41.3779        359
  41.3977        323
  41.4176        321
  41.4375        335
  41.4574        347
  41.4773        326
  41.4972        325
  41.5171        340
  41.5369        366
  41.5568        347
  41.5767        335
  41.5966        322
  41.6165        330
  41.6364        318
  41.6562        377
  41.6761        368
  41.6960        363
  41.7159        375
  41.7358        378
  41.7557        379
  41.7756        357
  41.7954        370
  41.8153        368
  41.8352        387
  41.8551        378
  41.8750        391
  41.8949        357
  41.9147        359
  41.9346        390
  41.9545        394
  41.9744        391
  41.9943        407
  42.0142        369
  42.0341        393
  42.0539        392
  42.0738        379
  42.0937        376
  42.1136        362
  42.1335        357
  42.1534        366
  42.1733        360
  42.1931        382
  42.2130        378
  42.2329        396
  42.2528        390
  42.2727        368
  42.2926        355
  42.3124        383
  42.3323        330
  42.3522        365
  42.3721        377
  42.3920        361
  42.4119        376
  42.4318        370
  42.4516        376
  42.4715        357
  42.4914        392
  42.5113        383
  42.5312        338
  42.5511        356
  42.5710        372
  42.5908        375
  42.6107        414
  42.6306        430
  42.6505        422
  42.6704        414
  42.6903        453
  42.7101        418
  42.7300        402
  42.7499        466
  42.7698        441
  42.7897        395
  42.8096        422
  42.8295        430
  42.8493        342
  42.8692        389
  42.8891        365
  42.9090        346
  42.9289        331
  42.9488        327
  42.9686        316
  42.9885        304
  43.0084        297
  43.0283        304
  43.0482        315
  43.0681        294
  43.0880        325
  43.1078        303
  43.1277        299
  43.1476        277
  43.1675        316
  43.1874        298
  43.2073        291
  43.2272        261
  43.2470        300
  43.2669        296
  43.2868        269
  43.3067        306
  43.3266        290
  43.3465        296
  43.3663        272
  43.3862        278
  43.4061        283
  43.4260        286
  43.4459        287
  43.4658        281
  43.4857        285
  43.5055        294
  43.5254        279
  43.5453        289
  43.5652        290
  43.5851        289
  43.6050        282
  43.6249        273
  43.6447        267
  43.6646        257
  43.6845        294
  43.7044        291
  43.7243        277
  43.7442        302
  43.7640        299
  43.7839        290
  43.8038        281
  43.8237        285
  43.8436        302
  43.8635        291
  43.8834        329
  43.9032        332
  43.9231        365
  43.9430        335
  43.9629        330
  43.9828        350
  44.0027        345
  44.0225        345
  44.0424        311
  44.0623        341
  44.0822        319
  44.1021        318
  44.1220        311
  44.1419        298
  44.1617        283
  44.1816        294
  44.2015        285
  44.2214        296
  44.2413        320
  44.2612        275
  44.2811        316
  44.3009        286
  44.3208        324
  44.3407        282
  44.3606        315
  44.3805        277
  44.4004        315
  44.4202        271
  44.4401        299
  44.4600        273
  44.4799        312
  44.4998        324
  44.5197        334
  44.5396        298
  44.5594        320
  44.5793        281
  44.5992        303
  44.6191        319
  44.6390        303
  44.6589        317
  44.6788        326
  44.6986        336
  44.7185        325
  44.7384        293
  44.7583        363
  44.7782        336
  44.7981        323
  44.8179        306
  44.8378        377
  44.8577        361
  44.8776        380
  44.8975        386
  44.9174        411
  44.9373        351
  44.9571        426
  44.9770        393
  44.9969        401
  45.0168        450
  45.0367        424
  45.0566        420
  45.0764        444
  45.0963        427
  45.1162        440
  45.1361        409
  45.1560        395
  45.1759        391
  45.1958        397
  45.2156        398
  45.2355        412
  45.2554        379
  45.2753        447
  45.2952        368
  45.3151        375
  45.3350        436
  45.3548        438
  45.3747        427
  45.3946        408
  45.4145        400
  45.4344        422
  45.4543        473
  45.4741        449
  45.4940        435
  45.5139        478
  45.5338        451
  45.5537        482
  45.5736        431
  45.5935        436
  45.6133        403
  45.6332        405
  45.6531        355
  45.6730        362
  45.6929        350
  45.7128        404
  45.7327        374
  45.7525        380
  45.7724        364
  45.7923        387
  45.8122        363
  45.8321        349
  45.8520        344
  45.8718        349
  45.8917        372
  45.9116        381
  45.9315        405
  45.9514        407
  45.9713        353
  45.9912        397
  46.0110        368
  46.0309        406
  46.0508        393
  46.0707        390
  46.0906        408
  46.1105        378
  46.1303        402
  46.1502        400
  46.1701        416
  46.1900        425
  46.2099        433
  46.2298        374
  46.2497        382
  46.2695        422
  46.2894        409
  46.3093        403
  46.3292        455
  46.3491        436
  46.3690        451
  46.3889        467
  46.4087        477
  46.4286        501
  46.4485        489
  46.4684        514
  46.4883        538
  46.5082        561
  46.5280        567
  46.5479        621
  46.5678        621
  46.5877        640
  46.6076        649
  46.6275        689
  46.6474        711
  46.6672        712
  46.6871        754
  46.7070        726
  46.7269        703
  46.7468        719
  46.7667        737
  46.7865        694
  46.8064        707
  46.8263        711
  46.8462        763
  46.8661        766
  46.8860        694
  46.9059        682
  46.9257        720
  46.9456        655
  46.9655        667
  46.9854        723
  47.0053        748
  47.0252        788
  47.0451        832
  47.0649        858
  47.0848        975
  47.1047       1067
  47.1246       1232
  47.1445       1300
  47.1644       1286
  47.1842       1178
  47.2041       1080
  47.2240       1021
  47.2439        925
  47.2638       1008
  47.2837        913
  47.3036        800
  47.3234        735
  47.3433        633
  47.3632        544
  47.3831        538
  47.4030        461
  47.4229        459
  47.4428        442
  47.4626        458
  47.4825        454
  47.5024        452
  47.5223        465
  47.5422        477
  47.5621        505
  47.5819        564
  47.6018        562
  47.6217        596
  47.6416        646
  47.6615        644
  47.6814        611
  47.7013        586
  47.7211        546
  47.7410        575
  47.7609        536
  47.7808        490
  47.8007        455
  47.8206        434
  47.8404        424
  47.8603        375
  47.8802        388
  47.9001        370
  47.9200        384
  47.9399        364
  47.9598        360
  47.9796        346
  47.9995        373
  48.0194        325
  48.0393        360
  48.0592        345
  48.0791        349
  48.0990        377
  48.1188        393
  48.1387        360
  48.1586        360
  48.1785        347
  48.1984        360
  48.2183        375
  48.2381        363
  48.2580        374
  48.2779        325
  48.2978        343
  48.3177        347
  48.3376        359
  48.3575        367
  48.3773        329
  48.3972        345
  48.4171        395
  48.4370        383
  48.4569        359
  48.4768        398
  48.4967        349
  48.5165        366
  48.5364        365
  48.5563        367
  48.5762        331
  48.5961        375
  48.6160        378
  48.6358        379
  48.6557        316
  48.6756        301
  48.6955        338
  48.7154        361
  48.7353        346
  48.7552        334
  48.7750        335
  48.7949        371
  48.8148        322
  48.8347        324
  48.8546        319
  48.8745        320
  48.8943        338
  48.9142        317
  48.9341        310
  48.9540        335
  48.9739        309
  48.9938        319
  49.0137        344
  49.0335        313
  49.0534        317
  49.0733        320
  49.0932        299
  49.1131        312
  49.1330        319
  49.1529        312
  49.1727        354
  49.1926        336
  49.2125        351
  49.2324        324
  49.2523        318
  49.2722        353
  49.2920        343
  49.3119        339
  49.3318        367
  49.3517        340
  49.3716        380
  49.3915        350
  49.4114        366
  49.4312        382
  49.4511        355
  49.4710        369
  49.4909        397
  49.5108        381
  49.5307        447
  49.5506        404
  49.5704        438
  49.5903        394
  49.6102        446
  49.6301        461
  49.6500        438
  49.6699        433
  49.6897        423
  49.7096        448
  49.7295        464
  49.7494        443
  49.7693        428
  49.7892        421
  49.8091        421
  49.8289        414
  49.8488        427
  49.8687        368
  49.8886        400
  49.9085        401
  49.9284        352
  49.9482        363
  49.9681        367
  49.9880        357
  50.0079        387
  50.0278        371
  50.0477        353
  50.0676        375
  50.0874        372
  50.1073        426
  50.1272        414
  50.1471        442
  50.1670        440
  50.1869        440
  50.2068        408
  50.2266        388
  50.2465        448
  50.2664        401
  50.2863        434
  50.3062        416
  50.3261        427
  50.3459        435
  50.3658        366
  50.3857        365
  50.4056        331
  50.4255        368
  50.4454        330
  50.4653        362
  50.4851        367
  50.5050        347
  50.5249        357
  50.5448        337
  50.5647        333
  50.5846        336
  50.6045        399
  50.6243        360
  50.6442        339
  50.6641        387
  50.6840        373
  50.7039        335
  50.7238        366
  50.7436        418
  50.7635        381
  50.7834        385
  50.8033        369
  50.8232        368
  50.8431        406
  50.8630        405
  50.8828        393
  50.9027        391
  50.9226        388
  50.9425        410
  50.9624        414
  50.9823        423
  51.0021        448
  51.0220        481
  51.0419        465
  51.0618        421
  51.0817        485
  51.1016        540
  51.1215        561
  51.1413        590
  51.1612        639
  51.1811        775
  51.2010        780
  51.2209        791
  51.2408        757
  51.2607        780
  51.2805        749
  51.3004        835
  51.3203        854
  51.3402        966
  51.3601        992
  51.3800        941
  51.3998        940
  51.4197        839
  51.4396        764
  51.4595        717
  51.4794        727
  51.4993        715
  51.5192        689
  51.5390        662
  51.5589        589
  51.5788        585
  51.5987        524
  51.6186        525
  51.6385        506
  51.6584        443
  51.6782        513
  51.6981        488
  51.7180        464
  51.7379        428
  51.7578        401
  51.7777        467
  51.7975        469
  51.8174        456
  51.8373        457
  51.8572        408
  51.8771        429
  51.8970        467
  51.9169        426
  51.9367        443
  51.9566        455
  51.9765        470
  51.9964        453
  52.0163        442
  52.0362        444
  52.0560        483
  52.0759        467
  52.0958        469
  52.1157        473
  52.1356        515
  52.1555        494
  52.1754        495
  52.1952        464
  52.2151        479
  52.2350        472
  52.2549        475
  52.2748        518
  52.2947        554
  52.3146        516
  52.3344        546
  52.3543        568
  52.3742        586
  52.3941        645
  52.4140        599
  52.4339        632
  52.4537        650
  52.4736        632
  52.4935        574
  52.5134        630
  52.5333        568
  52.5532        585
  52.5731        596
  52.5929        565
  52.6128        569
  52.6327        499
  52.6526        532
  52.6725        531
  52.6924        498
  52.7123        492
  52.7321        502
  52.7520        442
  52.7719        482
  52.7918        513
  52.8117        520
  52.8316        509
  52.8514        510
  52.8713        518
  52.8912        548
  52.9111        479
  52.9310        537
  52.9509        550
  52.9708        537
  52.9906        548
  53.0105        573
  53.0304        569
  53.0503        625
  53.0702        562
  53.0901        602
  53.1099        583
  53.1298        560
  53.1497        512
  53.1696        541
  53.1895        526
  53.2094        587
  53.2293        509
  53.2491        525
  53.2690        469
  53.2889        487
  53.3088        475
  53.3287        457
  53.3486        523
  53.3685        509
  53.3883        490
  53.4082        504
  53.4281        475
  53.4480        422
  53.4679        454
  53.4878        444
  53.5076        453
  53.5275        456
  53.5474        405
  53.5673        427
  53.5872        388
  53.6071        379
  53.6270        374
  53.6468        356
  53.6667        354
  53.6866        425
  53.7065        360
  53.7264        356
  53.7463        357
  53.7661        371
  53.7860        339
  53.8059        381
  53.8258        344
  53.8457        356
  53.8656        354
  53.8855        347
  53.9053        334
  53.9252        342
  53.9451        392
  53.9650        334
  53.9849        346
  54.0048        396
  54.0247        372
  54.0445        351
  54.0644        337
  54.0843        354
  54.1042        362
  54.1241        366
  54.1440        358
  54.1638        338
  54.1837        375
  54.2036        337
  54.2235        339
  54.2434        332
  54.2633        350
  54.2832        356
  54.3030        332
  54.3229        342
  54.3428        324
  54.3627        375
  54.3826        315
  54.4025        327
  54.4224        348
  54.4422        362
  54.4621        365
  54.4820        350
  54.5019        367
  54.5218        385
  54.5417        354
  54.5615        377
  54.5814        400
  54.6013        438
  54.6212        424
  54.6411        428
  54.6610        408
  54.6809        413
  54.7007        384
  54.7206        423
  54.7405        408
  54.7604        441
  54.7803        440
  54.8002        462
  54.8200        413
  54.8399        434
  54.8598        416
  54.8797        422
  54.8996        414
  54.9195        420
  54.9394        378
  54.9592        408
  54.9791        406
  54.9990        378
  55.0189        458
  55.0388        385
  55.0587        383
  55.0786        394
  55.0984        418
  55.1183        423
  55.1382        410
  55.1581        378
  55.1780        450
  55.1979        396
  55.2177        406
  55.2376        452
  55.2575        440
  55.2774        407
  55.2973        438
  55.3172        481
  55.3371        443
  55.3569        482
  55.3768        492
  55.3967        511
  55.4166        500
  55.4365        477
  55.4564        546
  55.4763        492
  55.4961        530
  55.5160        503
  55.5359        455
  55.5558        482
  55.5757        464
  55.5956        436
  55.6154        431
  55.6353        519
  55.6552        466
  55.6751        418
  55.6950        477
  55.7149        406
  55.7348        450
  55.7546        425
  55.7745        461
  55.7944        443
  55.8143        391
  55.8342        421
  55.8541        426
  55.8739        436
  55.8938        467
  55.9137        486
  55.9336        446
  55.9535        457
  55.9734        488
  55.9933        501
  56.0131        478
  56.0330        447
  56.0529        470
  56.0728        522
  56.0927        476
  56.1126        457
  56.1325        453
  56.1523        463
  56.1722        511
  56.1921        521
  56.2120        508
  56.2319        493
  56.2518        477
  56.2716        505
  56.2915        511
  56.3114        510
  56.3313        516
  56.3512        523
  56.3711        549
  56.3910        540
  56.4108        502
  56.4307        560
  56.4506        552
  56.4705        553
  56.4904        516
  56.5103        592
  56.5302        553
  56.5500        588
  56.5699        590
  56.5898        589
  56.6097        650
  56.6296        668
  56.6495        727
  56.6693        797
  56.6892        902
  56.7091        974
  56.7290       1099
  56.7489       1164
  56.7688       1074
  56.7887       1050
  56.8085        994
  56.8284        979
  56.8483        949
  56.8682        997
  56.8881       1014
  56.9080        933
  56.9278        986
  56.9477        976
  56.9676        909
  56.9875        961
  57.0074        996
  57.0273       1020
  57.0472       1066
  57.0670       1121
  57.0869        946
  57.1068        904
  57.1267        781
  57.1466        788
  57.1665        714
  57.1864        758
  57.2062        702
  57.2261        714
  57.2460        627
  57.2659        582
  57.2858        481
  57.3057        465
  57.3255        466
  57.3454        440
  57.3653        433
  57.3852        416
  57.4051        358
  57.4250        373
  57.4449        337
  57.4647        369
  57.4846        356
  57.5045        385
  57.5244        362
  57.5443        373
  57.5642        344
  57.5841        363
  57.6039        351
  57.6238        320
  57.6437        358
  57.6636        350
  57.6835        361
  57.7034        332
  57.7232        326
  57.7431        359
  57.7630        326
  57.7829        337
  57.8028        357
  57.8227        343
  57.8426        312
  57.8624        329
  57.8823        321
  57.9022        309
  57.9221        302
  57.9420        325
  57.9619        277
  57.9817        348
  58.0016        318
  58.0215        328
  58.0414        288
  58.0613        329
  58.0812        348
  58.1011        296
  58.1209        329
  58.1408        307
  58.1607        331
  58.1806        330
  58.2005        325
  58.2204        312
  58.2403        314
  58.2601        321
  58.2800        358
  58.2999        352
  58.3198        357
  58.3397        397
  58.3596        395
  58.3794        405
  58.3993        410
  58.4192        394
  58.4391        382
  58.4590        366
  58.4789        355
  58.4988        355
  58.5186        363
  58.5385        383
  58.5584        346
  58.5783        347
  58.5982        354
  58.6181        285
  58.6380        342
  58.6578        351
  58.6777        350
  58.6976        324
  58.7175        345
  58.7374        339
  58.7573        354
  58.7771        323
  58.7970        356
  58.8169        321
  58.8368        321
  58.8567        326
  58.8766        349
  58.8965        337
  58.9163        360
  58.9362        316
  58.9561        319
  58.9760        334
  58.9959        349
  59.0158        334
  59.0356        329
  59.0555        306
  59.0754        327
  59.0953        385
  59.1152        350
  59.1351        317
  59.1550        318
  59.1748        333
  59.1947        321
  59.2146        282
  59.2345        321
  59.2544        326
  59.2743        285
  59.2942        285
  59.3140        291
  59.3339        291
  59.3538        277
  59.3737        279
  59.3936        287
  59.4135        302
  59.4333        289
  59.4532        245
  59.4731        289
  59.4930        276
  59.5129        295
  59.5328        280
  59.5527        270
  59.5725        241
  59.5924        249
  59.6123        273
  59.6322        257
  59.6521        232
  59.6720        262
  59.6918        264
  59.7117        293
  59.7316        258
  59.7515        260
  59.7714        255
  59.7913        278
  59.8112        255
  59.8310        262
  59.8509        258
  59.8708        253
  59.8907        244
  59.9106        238
  59.9305        254
  59.9504        250
  59.9702        266
  59.9901        237
  60.0100        233
  60.0299        269
  60.0498        266
  60.0697        248
  60.0895        228
  60.1094        238
  60.1293        251
  60.1492        253
  60.1691        242
  60.1890        258
  60.2089        268
  60.2287        246
  60.2486        258
  60.2685        256
  60.2884        264
  60.3083        253
  60.3282        244
  60.3481        251
  60.3679        224
  60.3878        244
  60.4077        237
  60.4276        250
  60.4475        255
  60.4674        245
  60.4872        254
  60.5071        241
  60.5270        243
  60.5469        241
  60.5668        215
  60.5867        250
  60.6066        264
  60.6264        261
  60.6463        290
  60.6662        251
  60.6861        275
  60.7060        220
  60.7259        224
  60.7457        259
  60.7656        226
  60.7855        255
  60.8054        259
  60.8253        241
  60.8452        262
  60.8651        269
  60.8849        266
  60.9048        258
  60.9247        260
  60.9446        259
  60.9645        268
  60.9844        270
  61.0043        231
  61.0241        288
  61.0440        259
  61.0639        273
  61.0838        265
  61.1037        264
  61.1236        258
  61.1434        283
  61.1633        286
  61.1832        254
  61.2031        288
  61.2230        238
  61.2429        259
  61.2628        225
  61.2826        263
  61.3025        245
  61.3224        270
  61.3423        263
  61.3622        236
  61.3821        243
  61.4020        269
  61.4218        247
  61.4417        277
  61.4616        232
  61.4815        244
  61.5014        247
  61.5213        257
  61.5411        251
  61.5610        262
  61.5809        254
  61.6008        277
  61.6207        282
  61.6406        265
  61.6605        300
  61.6803        292
  61.7002        292
  61.7201        299
  61.7400        297
  61.7599        295
  61.7798        258
  61.7996        291
  61.8195        276
  61.8394        291
  61.8593        295
  61.8792        326
  61.8991        280
  61.9190        337
  61.9388        332
  61.9587        323
  61.9786        376
  61.9985        340
  62.0184        364
  62.0383        344
  62.0582        375
  62.0780        356
  62.0979        352
  62.1178        378
  62.1377        364
  62.1576        405
  62.1775        399
  62.1973        429
  62.2172        455
  62.2371        440
  62.2570        543
  62.2769        616
  62.2968        591
  62.3167        559
  62.3365        563
  62.3564        517
  62.3763        476
  62.3962        437
  62.4161        461
  62.4360        460
  62.4559        418
  62.4757        428
  62.4956        469
  62.5155        424
  62.5354        416
  62.5553        367
  62.5752        323
  62.5950        355
  62.6149        341
  62.6348        318
  62.6547        295
  62.6746        301
  62.6945        286
  62.7144        255
  62.7342        293
  62.7541        311
  62.7740        265
  62.7939        272
  62.8138        257
  62.8337        262
  62.8535        237
  62.8734        258
  62.8933        227
  62.9132        291
  62.9331        281
  62.9530        238
  62.9729        294
  62.9927        251
  63.0126        259
  63.0325        279
  63.0524        251
  63.0723        227
  63.0922        264
  63.1121        272
  63.1319        252
  63.1518        269
  63.1717        261
  63.1916        247
  63.2115        231
  63.2314        235
  63.2512        230
  63.2711        248
  63.2910        252
  63.3109        222
  63.3308        248
  63.3507        219
  63.3706        245
  63.3904        244
  63.4103        234
  63.4302        266
  63.4501        260
  63.4700        245
  63.4899        216
  63.5098        235
  63.5296        263
  63.5495        260
  63.5694        243
  63.5893        234
  63.6092        262
  63.6291        243
  63.6489        266
  63.6688        265
  63.6887        245
  63.7086        255
  63.7285        220
  63.7484        243
  63.7683        245
  63.7881        254
  63.8080        265
  63.8279        245
  63.8478        235
  63.8677        270
  63.8876        266
  63.9074        247
  63.9273        261
  63.9472        279
  63.9671        280
  63.9870        326
  64.0069        335
  64.0268        326
  64.0466        346
  64.0665        390
  64.0864        406
  64.1063        437
  64.1262        474
  64.1461        401
  64.1660        383
  64.1858        391
  64.2057        380
  64.2256        371
  64.2455        381
  64.2654        353
  64.2853        361
  64.3051        339
  64.3250        376
  64.3449        346
  64.3648        336
  64.3847        276
  64.4046        278
  64.4245        272
  64.4443        266
  64.4642        274
  64.4841        258
  64.5040        249
  64.5239        251
  64.5438        248
  64.5637        238
  64.5835        245
  64.6034        252
  64.6233        245
  64.6432        245
  64.6631        233
  64.6830        250
  64.7028        266
  64.7227        256
  64.7426        253
  64.7625        249
  64.7824        272
  64.8023        283
  64.8222        264
  64.8420        238
  64.8619        248
  64.8818        240
  64.9017        229
  64.9216        243
  64.9415        269
  64.9613        271
  64.9812        282
  65.0011        225
  65.0210        228
  65.0409        225
  65.0608        222
  65.0807        247
  65.1005        248
  65.1204        260
  65.1403        232
  65.1602        242
  65.1801        243
  65.2000        228
  65.2199        219
  65.2397        234
  65.2596        227
  65.2795        247
  65.2994        258
  65.3193        275
  65.3392        230
  65.3590        243
  65.3789        251
  65.3988        248
  65.4187        255
  65.4386        237
  65.4585        270
  65.4784        244
  65.4982        245
  65.5181        235
  65.5380        242
  65.5579        227
  65.5778        274
  65.5977        262
  65.6176        258
  65.6374        257
  65.6573        226
  65.6772        246
  65.6971        252
  65.7170        243
  65.7369        249
  65.7567        242
  65.7766        232
  65.7965        207
  65.8164        252
  65.8363        247
  65.8562        257
  65.8761        248
  65.8959        221
  65.9158        236
  65.9357        237
  65.9556        211
  65.9755        238
  65.9954        229
  66.0152        239
  66.0351        208
  66.0550        229
  66.0749        232
  66.0948        251
  66.1147        245
  66.1346        239
  66.1544        235
  66.1743        237
  66.1942        211
  66.2141        225
  66.2340        218
  66.2539        234
  66.2738        243
  66.2936        253
  66.3135        246
  66.3334        255
  66.3533        230
  66.3732        233
  66.3931        239
  66.4129        284
  66.4328        258
  66.4527        269
  66.4726        252
  66.4925        312
  66.5124        295
  66.5323        252
  66.5521        246
  66.5720        238
  66.5919        242
  66.6118        270
  66.6317        229
  66.6516        249
  66.6714        258
  66.6913        242
  66.7112        230
  66.7311        248
  66.7510        212
  66.7709        199
  66.7908        220
  66.8106        211
  66.8305        194
  66.8504        229
  66.8703        215
  66.8902        196
  66.9101        249
  66.9300        210
  66.9498        189
  66.9697        208
  66.9896        228
  67.0095        208
  67.0294        239
  67.0493        209
  67.0691        217
  67.0890        204
  67.1089        209
  67.1288        241
  67.1487        206
  67.1686        227
  67.1885        211
  67.2083        222
  67.2282        209
  67.2481        228
  67.2680        207
  67.2879        210
  67.3078        235
  67.3277        249
  67.3475        213
  67.3674        200
  67.3873        217
  67.4072        182
  67.4271        205
  67.4470        234
  67.4668        195
  67.4867        241
  67.5066        238
  67.5265        233
  67.5464        237
  67.5663        219
  67.5862        236
  67.6060        219
  67.6259        251
  67.6458        219
  67.6657        249
  67.6856        191
  67.7055        213
  67.7253        218
  67.7452        240
  67.7651        242
  67.7850        228
  67.8049        232
  67.8248        241
  67.8447        225
  67.8645        216
  67.8844        224
  67.9043        245
  67.9242        217
  67.9441        250
  67.9640        212
  67.9839        246
  68.0037        256
  68.0236        240
  68.0435        244
  68.0634        242
  68.0833        227
  68.1032        232
  68.1230        241
  68.1429        243
  68.1628        249
  68.1827        248
  68.2026        231
  68.2225        250
  68.2424        213
  68.2622        280
  68.2821        266
  68.3020        235
  68.3219        282
  68.3418        274
  68.3617        274
  68.3816        231
  68.4014        282
  68.4213        234
  68.4412        245
  68.4611        245
  68.4810        279
  68.5009        237
  68.5207        273
  68.5406        241
  68.5605        273
  68.5804        260
  68.6003        289
  68.6202        272
  68.6401        276
  68.6599        326
  68.6798        309
  68.6997        286
  68.7196        297
  68.7395        270
  68.7594        300
  68.7792        277
  68.7991        264
  68.8190        280
  68.8389        293
  68.8588        285
  68.8787        273
  68.8986        281
  68.9184        243
  68.9383        307
  68.9582        320
  68.9781        274
  68.9980        262
  69.0179        287
  69.0378        254
  69.0576        281
  69.0775        297
  69.0974        341
  69.1173        323
  69.1372        333
  69.1571        353
  69.1769        389
  69.1968        418
  69.2167        391
  69.2366        412
  69.2565        366
  69.2764        376
  69.2963        327
  69.3161        347
  69.3360        318
  69.3559        342
  69.3758        339
  69.3957        338
  69.4156        362
  69.4355        367
  69.4553        331
  69.4752        317
  69.4951        297
  69.5150        307
  69.5349        293
  69.5548        274
  69.5746        275
  69.5945        255
  69.6144        262
  69.6343        261
  69.6542        245
  69.6741        255
  69.6940        265
  69.7138        258
  69.7337        245
  69.7536        245
  69.7735        266
  69.7934        256
  69.8133        241
  69.8331        219
  69.8530        242
  69.8729        221
  69.8928        223
  69.9127        228
  69.9326        244
  69.9525        218
  69.9723        237
  69.9922        233
  70.0121        257
  70.0320        220
  70.0519        225
  70.0718        242
  70.0917        224
  70.1115        204
  70.1314        216
  70.1513        241
  70.1712        234
  70.1911        225
  70.2110        229
  70.2308        247
  70.2507        217
  70.2706        252
  70.2905        206
  70.3104        243
  70.3303        224
  70.3502        193
  70.3700        205
  70.3899        210
  70.4098        210
  70.4297        209
  70.4496        213
  70.4695        200
  70.4894        211
  70.5092        211
  70.5291        215
  70.5490        202
  70.5689        219
  70.5888        216
  70.6087        186
  70.6285        173
  70.6484        180
  70.6683        195
  70.6882        204
  70.7081        192
  70.7280        210
  70.7479        237
  70.7677        235
  70.7876        213
  70.8075        198
  70.8274        182
  70.8473        177
  70.8672        204
  70.8870        230
  70.9069        221
  70.9268        226
  70.9467        222
  70.9666        204
  70.9865        207
  71.0064        215
  71.0262        241
  71.0461        221
  71.0660        254
  71.0859        259
  71.1058        249
  71.1257        225
  71.1456        209
  71.1654        204
  71.1853        232
  71.2052        211
  71.2251        232
  71.2450        222
  71.2649        242
  71.2847        233
  71.3046        235
  71.3245        218
  71.3444        231
  71.3643        209
  71.3842        226
  71.4041        233
  71.4239        214
  71.4438        202
  71.4637        228
  71.4836        233
  71.5035        214
  71.5234        243
  71.5433        207
  71.5631        234
  71.5830        211
  71.6029        228
  71.6228        257
  71.6427        238
  71.6626        229
  71.6824        239
  71.7023        193
  71.7222        217
  71.7421        234
  71.7620        242
  71.7819        233
  71.8018        245
  71.8216        251
  71.8415        246
  71.8614        244
  71.8813        290
  71.9012        260
  71.9211        245
  71.9409        258
  71.9608        279
  71.9807        275
  72.0006        256
  72.0205        291
  72.0404        269
  72.0603        261
  72.0801        261
  72.1000        260
  72.1199        256
  72.1398        247
  72.1597        240
  72.1796        266
  72.1995        281
  72.2193        264
  72.2392        268
  72.2591        262
  72.2790        245
  72.2989        266
  72.3188        276
  72.3386        248
  72.3585        255
  72.3784        237
  72.3983        232
  72.4182        242
  72.4381        234
  72.4580        231
  72.4778        255
  72.4977        271
  72.5176        263
  72.5375        265
  72.5574        285
  72.5773        233
  72.5971        249
  72.6170        246
  72.6369        233
  72.6568        256
  72.6767        238
  72.6966        221
  72.7165        275
  72.7363        264
  72.7562        294
  72.7761        262
  72.7960        294
  72.8159        291
  72.8358        275
  72.8557        285
  72.8755        251
  72.8954        273
  72.9153        277
  72.9352        283
  72.9551        284
  72.9750        279
  72.9948        280
  73.0147        269
  73.0346        286
  73.0545        284
  73.0744        286
  73.0943        274
  73.1142        261
  73.1340        283
  73.1539        278
  73.1738        283
  73.1937        285
  73.2136        285
  73.2335        247
  73.2534        253
  73.2732        274
  73.2931        299
  73.3130        281
  73.3329        291
  73.3528        271
  73.3727        266
  73.3925        282
  73.4124        283
  73.4323        261
  73.4522        261
  73.4721        278
  73.4920        247
  73.5119        273
  73.5317        274
  73.5516        265
  73.5715        283
  73.5914        265
  73.6113        276
  73.6312        238
  73.6510        289
  73.6709        265
  73.6908        269
  73.7107        276
  73.7306        254
  73.7505        283
  73.7704        289
  73.7902        255
  73.8101        264
  73.8300        275
  73.8499        272
  73.8698        257
  73.8897        275
  73.9096        277
  73.9294        281
  73.9493        258
  73.9692        286
  73.9891        258
  74.0090        275
  74.0289        273
  74.0487        256
  74.0686        242
  74.0885        258
  74.1084        302
  74.1283        233
  74.1482        238
  74.1681        256
  74.1879        203
  74.2078        231
  74.2277        247
  74.2476        269
  74.2675        270
  74.2874        258
  74.3073        244
  74.3271        260
  74.3470        241
  74.3669        236
  74.3868        208
  74.4067        238
  74.4266        262
  74.4464        229
  74.4663        231
  74.4862        215
  74.5061        228
  74.5260        240
  74.5459        234
  74.5658        197
  74.5856        250
  74.6055        209
  74.6254        228
  74.6453        225
  74.6652        208
  74.6851        229
  74.7049        238
  74.7248        248
  74.7447        236
  74.7646        238
  74.7845        226
  74.8044        210
  74.8243        228
  74.8441        219
  74.8640        223
  74.8839        222
  74.9038        241
  74.9237        224
  74.9436        237
  74.9635        255
  74.9833        260
  75.0032        245
  75.0231        194
  75.0430        230
  75.0629        235
  75.0828        241
  75.1026        223
  75.1225        196
  75.1424        252
  75.1623        209
  75.1822        249
  75.2021        244
  75.2220        242
  75.2418        230
  75.2617        256
  75.2816        230
  75.3015        221
  75.3214        229
  75.3413        238
  75.3612        239
  75.3810        230
  75.4009        261
  75.4208        225
  75.4407        248
  75.4606        232
  75.4805        225
  75.5003        244
  75.5202        274
  75.5401        265
  75.5600        212
  75.5799        205
  75.5998        247
  75.6197        232
  75.6395        241
  75.6594        232
  75.6793        249
  75.6992        248
  75.7191        232
  75.7390        247
  75.7588        241
  75.7787        258
  75.7986        244
  75.8185        256
  75.8384        248
  75.8583        255
  75.8782        239
  75.8980        264
  75.9179        272
  75.9378        261
  75.9577        263
  75.9776        255
  75.9975        250
  76.0174        243
  76.0372        250
  76.0571        270
  76.0770        231
  76.0969        237
  76.1168        237
  76.1367        254
  76.1565        271
  76.1764        262
  76.1963        262
  76.2162        245
  76.2361        260
  76.2560        285
  76.2759        261
  76.2957        226
  76.3156        247
  76.3355        251
  76.3554        272
  76.3753        268
  76.3952        262
  76.4151        225
  76.4349        246
  76.4548        255
  76.4747        270
  76.4946        260
  76.5145        252
  76.5344        284
  76.5542        249
  76.5741        290
  76.5940        262
  76.6139        282
  76.6338        247
  76.6537        266
  76.6736        250
  76.6934        284
  76.7133        266
  76.7332        264
  76.7531        261
  76.7730        281
  76.7929        286
  76.8127        288
  76.8326        285
  76.8525        303
  76.8724        337
  76.8923        327
  76.9122        328
  76.9321        361
  76.9519        359
  76.9718        378
  76.9917        382
  77.0116        366
  77.0315        359
  77.0514        360
  77.0713        337
  77.0911        322
  77.1110        346
  77.1309        329
  77.1508        329
  77.1707        330
  77.1906        355
  77.2104        353
  77.2303        341
  77.2502        325
  77.2701        337
  77.2900        308
  77.3099        311
  77.3298        296
  77.3496        298
  77.3695        316
  77.3894        285
  77.4093        261
  77.4292        314
  77.4491        307
  77.4690        274
  77.4888        263
  77.5087        280
  77.5286        270
  77.5485        261
  77.5684        305
  77.5883        278
  77.6081        283
  77.6280        280
  77.6479        287
  77.6678        273
  77.6877        259
  77.7076        273
  77.7275        269
  77.7473        312
  77.7672        281
  77.7871        249
  77.8070        253
  77.8269        245
  77.8468        253
  77.8666        263
  77.8865        255
  77.9064        252
  77.9263        283
  77.9462        266
  77.9661        273
  77.9860        302
  78.0058        291
  78.0257        251
  78.0456        267
  78.0655        281
  78.0854        298
  78.1053        278
  78.1252        314
  78.1450        292
  78.1649        265
  78.1848        332
  78.2047        317
  78.2246        310
  78.2445        317
  78.2643        296
  78.2842        342
  78.3041        356
  78.3240        327
  78.3439        361
  78.3638        387
  78.3837        357
  78.4035        360
  78.4234        292
  78.4433        295
  78.4632        300
  78.4831        301
  78.5030        299
  78.5229        327
  78.5427        295
  78.5626        317
  78.5825        322
  78.6024        320
  78.6223        306
  78.6422        339
  78.6620        351
  78.6819        293
  78.7018        311
  78.7217        281
  78.7416        330
  78.7615        304
  78.7814        267
  78.8012        269
  78.8211        287
  78.8410        259
  78.8609        238
  78.8808        240
  78.9007        242
  78.9205        259
  78.9404        267
  78.9603        260
  78.9802        263
  79.0001        253
  79.0200        277
  79.0399        265
  79.0597        241
  79.0796        236
  79.0995        212
  79.1194        213
  79.1393        201
  79.1592        235
  79.1791        223
  79.1989        219
  79.2188        232
  79.2387        222
  79.2586        239
  79.2785        238
  79.2984        222
  79.3182        222
  79.3381        215
  79.3580        239
  79.3779        225
  79.3978        216
  79.4177        212
  79.4376        226
  79.4574        216
  79.4773        205
  79.4972        238
  79.5171        226
  79.5370        252
  79.5569        217
  79.5767        229
  79.5966        209
  79.6165        238
  79.6364        214
  79.6563        220
  79.6762        199
  79.6961        197
  79.7159        177
  79.7358        197
  79.7557        221
  79.7756        227
  79.7955        215
  79.8154        230
  79.8353        191
  79.8551        227
  79.8750        214
  79.8949        198
  79.9148        201
  79.9347        190
  79.9546        209
  79.9744        231
  79.9943        213
