; (content of file E:\SAIF User Data\2019\Adrine Correya RS,ISP,CUSAT\190711G\SAIFXR190711G-01(A).raw)
_FILEVERSION = 2
_SAMPLE = A
_+SAMPLE = 
_SITE = "Cochin Uni"
_USER = "Cochin Uni"
_GONIOMETER_CODE = 20
; Goniometer : D8 theta/2theta, stage : Unknown
_SAMPLE_CHANGER_CODE = 0
_ATTACHMENTS_CODE = 0
_GONIOMETER_RADIUS = 217.5
_FIXED_DIVSLIT = 0.15
_FIXED_SAMPLESLIT = 1
_SOLLER_SLITS = 2
_FIXED_DETSLIT = 1
_MONOCHROMATOR = 0
; Incident beam monochromator : None
_THIN_FILM = N
_BETA_FILTER = N
_FIXED_ANTISLIT = 0.15
_ANALYZER_CODE = 0
; Received beam analyzer : None
_DATEMEASURED = "15-Jul-2019 14:44:46"
_WL_UNIT = A
_WL1 = 1.5406
_WL2 = 1.54439
_WL3 = 1.39222
_WLRATIO = 0.5
_ANODE = Cu

; Data for range 1
_DRIVE = COUPLED
_STEPTIME = 59.67
_STEPSIZE = 0.0198849
_STEPMODE = C
_START = 3
_THETA = 1.5
_2THETA = 3
_KHI = 0
_PHI = 0
_X = 0
_Y = 0
_Z = 0
_DETECTOR = 5
; Detector type : Unknown
_DETECTORSLIT = out
_AUX1 = 0
_AUX2 = 0
_AUX3 = 0
_TIMESTARTED = 16
_TEMP_RATE = -1
_TEMP_DELAY = -1
_KV = 40
_MA = 40
_RANGE_WL = 1.5406
_3DPLANE = 0
_V4_COUNTERS_MASK = 4096
_V4_DRIVES_MASK = 0
_V4_ENCODERS_MASK = 0
_2THETACOUNTS = 1
; 2THETA  PSD
   3.0000       2315
   3.0199       2310
   3.0398       2324
   3.0597       2302
   3.0795       2197
   3.0994       2169
   3.1193       2163
   3.1392       2093
   3.1591       2114
   3.1790       2093
   3.1988       2019
   3.2187       2044
   3.2386       2153
   3.2585       1943
   3.2784       2097
   3.2983       1987
   3.3182       1978
   3.3380       1972
   3.3579       1922
   3.3778       1892
   3.3977       1884
   3.4176       1911
   3.4375       1865
   3.4574       1867
   3.4772       1786
   3.4971       1814
   3.5170       1813
   3.5369       1793
   3.5568       1812
   3.5767       1786
   3.5965       1718
   3.6164       1673
   3.6363       1745
   3.6562       1747
   3.6761       1698
   3.6960       1702
   3.7159       1675
   3.7357       1728
   3.7556       1656
   3.7755       1657
   3.7954       1617
   3.8153       1599
   3.8352       1628
   3.8551       1628
   3.8749       1608
   3.8948       1642
   3.9147       1551
   3.9346       1628
   3.9545       1527
   3.9744       1621
   3.9942       1550
   4.0141       1538
   4.0340       1478
   4.0539       1572
   4.0738       1507
   4.0937       1529
   4.1136       1511
   4.1334       1488
   4.1533       1579
   4.1732       1585
   4.1931       1480
   4.2130       1462
   4.2329       1517
   4.2527       1495
   4.2726       1466
   4.2925       1552
   4.3124       1479
   4.3323       1483
   4.3522       1486
   4.3721       1553
   4.3919       1521
   4.4118       1496
   4.4317       1503
   4.4516       1468
   4.4715       1406
   4.4914       1457
   4.5113       1495
   4.5311       1493
   4.5510       1416
   4.5709       1430
   4.5908       1351
   4.6107       1332
   4.6306       1469
   4.6504       1408
   4.6703       1410
   4.6902       1415
   4.7101       1357
   4.7300       1401
   4.7499       1433
   4.7698       1454
   4.7896       1343
   4.8095       1399
   4.8294       1438
   4.8493       1398
   4.8692       1385
   4.8891       1333
   4.9090       1442
   4.9288       1403
   4.9487       1363
   4.9686       1345
   4.9885       1361
   5.0084       1339
   5.0283       1392
   5.0481       1331
   5.0680       1383
   5.0879       1304
   5.1078       1293
   5.1277       1352
   5.1476       1292
   5.1675       1318
   5.1873       1281
   5.2072       1287
   5.2271       1329
   5.2470       1330
   5.2669       1374
   5.2868       1307
   5.3066       1283
   5.3265       1313
   5.3464       1240
   5.3663       1297
   5.3862       1284
   5.4061       1282
   5.4260       1350
   5.4458       1226
   5.4657       1299
   5.4856       1335
   5.5055       1283
   5.5254       1290
   5.5453       1285
   5.5652       1285
   5.5850       1223
   5.6049       1300
   5.6248       1286
   5.6447       1208
   5.6646       1241
   5.6845       1215
   5.7043       1241
   5.7242       1208
   5.7441       1234
   5.7640       1266
   5.7839       1236
   5.8038       1194
   5.8237       1165
   5.8435       1235
   5.8634       1261
   5.8833       1195
   5.9032       1170
   5.9231       1238
   5.9430       1202
   5.9629       1224
   5.9827       1245
   6.0026       1206
   6.0225       1176
   6.0424       1176
   6.0623       1170
   6.0822       1238
   6.1020       1266
   6.1219       1271
   6.1418       1260
   6.1617       1155
   6.1816       1109
   6.2015       1206
   6.2214       1165
   6.2412       1159
   6.2611       1220
   6.2810       1192
   6.3009       1145
   6.3208       1203
   6.3407       1156
   6.3605       1226
   6.3804       1199
   6.4003       1181
   6.4202       1256
   6.4401       1210
   6.4600       1190
   6.4799       1229
   6.4997       1186
   6.5196       1195
   6.5395       1177
   6.5594       1217
   6.5793       1320
   6.5992       1195
   6.6191       1245
   6.6389       1305
   6.6588       1307
   6.6787       1344
   6.6986       1338
   6.7185       1434
   6.7384       1430
   6.7582       1628
   6.7781       1463
   6.7980       1582
   6.8179       1529
   6.8378       1399
   6.8577       1320
   6.8776       1216
   6.8974       1301
   6.9173       1183
   6.9372       1158
   6.9571       1169
   6.9770       1180
   6.9969       1125
   7.0167       1104
   7.0366       1118
   7.0565       1118
   7.0764       1131
   7.0963       1140
   7.1162       1085
   7.1361       1145
   7.1559       1104
   7.1758       1160
   7.1957       1121
   7.2156       1026
   7.2355       1122
   7.2554       1057
   7.2753       1105
   7.2951       1067
   7.3150       1054
   7.3349       1068
   7.3548       1073
   7.3747       1050
   7.3946       1107
   7.4144       1020
   7.4343       1057
   7.4542       1063
   7.4741       1060
   7.4940       1041
   7.5139       1050
   7.5338       1061
   7.5536       1040
   7.5735       1055
   7.5934       1025
   7.6133       1040
   7.6332       1007
   7.6531       1087
   7.6730       1035
   7.6928       1059
   7.7127       1059
   7.7326       1096
   7.7525       1052
   7.7724       1029
   7.7923       1063
   7.8121       1033
   7.8320       1040
   7.8519        974
   7.8718       1031
   7.8917       1042
   7.9116        962
   7.9315        970
   7.9513       1042
   7.9712       1033
   7.9911       1072
   8.0110       1017
   8.0309       1069
   8.0508       1049
   8.0706       1008
   8.0905        999
   8.1104       1000
   8.1303        965
   8.1502       1030
   8.1701       1010
   8.1900       1004
   8.2098       1022
   8.2297        997
   8.2496       1047
   8.2695       1068
   8.2894        998
   8.3093       1106
   8.3292        975
   8.3490       1022
   8.3689        997
   8.3888        938
   8.4087       1062
   8.4286       1105
   8.4485       1115
   8.4683       1090
   8.4882       1156
   8.5081       1090
   8.5280       1111
   8.5479       1177
   8.5678       1142
   8.5877       1130
   8.6075       1149
   8.6274       1209
   8.6473       1219
   8.6672       1262
   8.6871       1207
   8.7070       1208
   8.7269       1213
   8.7467       1252
   8.7666       1242
   8.7865       1207
   8.8064       1189
   8.8263       1211
   8.8462       1166
   8.8660       1178
   8.8859       1223
   8.9058       1160
   8.9257       1151
   8.9456       1110
   8.9655       1144
   8.9854       1065
   9.0052       1105
   9.0251       1062
   9.0450       1098
   9.0649       1033
   9.0848       1066
   9.1047       1009
   9.1245       1019
   9.1444       1003
   9.1643        998
   9.1842       1052
   9.2041       1015
   9.2240        983
   9.2439        977
   9.2637        959
   9.2836        956
   9.3035        947
   9.3234        989
   9.3433        976
   9.3632        921
   9.3831        974
   9.4029        921
   9.4228        928
   9.4427        972
   9.4626        954
   9.4825        895
   9.5024        898
   9.5222        852
   9.5421        834
   9.5620        903
   9.5819        841
   9.6018        850
   9.6217        797
   9.6416        839
   9.6614        879
   9.6813        921
   9.7012        898
   9.7211        900
   9.7410        858
   9.7609        879
   9.7808        893
   9.8006        877
   9.8205        854
   9.8404        851
   9.8603        845
   9.8802        828
   9.9001        892
   9.9199        832
   9.9398        811
   9.9597        819
   9.9796        834
   9.9995        816
  10.0194        857
  10.0393        848
  10.0591        770
  10.0790        819
  10.0989        809
  10.1188        839
  10.1387        817
  10.1586        780
  10.1784        812
  10.1983        799
  10.2182        808
  10.2381        797
  10.2580        810
  10.2779        828
  10.2978        851
  10.3176        830
  10.3375        789
  10.3574        803
  10.3773        831
  10.3972        787
  10.4171        820
  10.4370        794
  10.4568        775
  10.4767        764
  10.4966        800
  10.5165        808
  10.5364        853
  10.5563        764
  10.5761        760
  10.5960        803
  10.6159        812
  10.6358        794
  10.6557        771
  10.6756        818
  10.6955        750
  10.7153        807
  10.7352        780
  10.7551        807
  10.7750        782
  10.7949        771
  10.8148        825
  10.8347        783
  10.8545        823
  10.8744        821
  10.8943        821
  10.9142        778
  10.9341        771
  10.9540        795
  10.9738        781
  10.9937        797
  11.0136        788
  11.0335        777
  11.0534        756
  11.0733        832
  11.0932        781
  11.1130        802
  11.1329        817
  11.1528        798
  11.1727        835
  11.1926        819
  11.2125        791
  11.2323        886
  11.2522        859
  11.2721        855
  11.2920        822
  11.3119        799
  11.3318        824
  11.3517        790
  11.3715        773
  11.3914        748
  11.4113        771
  11.4312        777
  11.4511        814
  11.4710        799
  11.4909        781
  11.5107        732
  11.5306        770
  11.5505        784
  11.5704        766
  11.5903        775
  11.6102        718
  11.6300        802
  11.6499        783
  11.6698        748
  11.6897        744
  11.7096        759
  11.7295        768
  11.7494        698
  11.7692        759
  11.7891        801
  11.8090        727
  11.8289        759
  11.8488        796
  11.8687        810
  11.8886        743
  11.9084        746
  11.9283        751
  11.9482        738
  11.9681        754
  11.9880        743
  12.0079        766
  12.0277        773
  12.0476        729
  12.0675        810
  12.0874        757
  12.1073        716
  12.1272        735
  12.1471        734
  12.1669        729
  12.1868        769
  12.2067        708
  12.2266        782
  12.2465        721
  12.2664        728
  12.2862        742
  12.3061        770
  12.3260        724
  12.3459        731
  12.3658        765
  12.3857        778
  12.4056        758
  12.4254        738
  12.4453        786
  12.4652        687
  12.4851        772
  12.5050        768
  12.5249        712
  12.5448        767
  12.5646        730
  12.5845        746
  12.6044        711
  12.6243        687
  12.6442        739
  12.6641        706
  12.6839        739
  12.7038        753
  12.7237        676
  12.7436        723
  12.7635        759
  12.7834        759
  12.8033        726
  12.8231        744
  12.8430        735
  12.8629        733
  12.8828        750
  12.9027        696
  12.9226        734
  12.9425        713
  12.9623        714
  12.9822        747
  13.0021        780
  13.0220        707
  13.0419        727
  13.0618        801
  13.0816        751
  13.1015        729
  13.1214        718
  13.1413        710
  13.1612        684
  13.1811        715
  13.2010        717
  13.2208        736
  13.2407        683
  13.2606        782
  13.2805        738
  13.3004        654
  13.3203        724
  13.3401        739
  13.3600        705
  13.3799        684
  13.3998        709
  13.4197        746
  13.4396        607
  13.4595        625
  13.4793        695
  13.4992        717
  13.5191        742
  13.5390        678
  13.5589        704
  13.5788        648
  13.5987        644
  13.6185        708
  13.6384        692
  13.6583        693
  13.6782        707
  13.6981        726
  13.7180        681
  13.7378        719
  13.7577        703
  13.7776        731
  13.7975        656
  13.8174        722
  13.8373        676
  13.8572        673
  13.8770        675
  13.8969        667
  13.9168        653
  13.9367        703
  13.9566        664
  13.9765        650
  13.9963        631
  14.0162        704
  14.0361        701
  14.0560        633
  14.0759        614
  14.0958        642
  14.1157        662
  14.1355        680
  14.1554        659
  14.1753        627
  14.1952        615
  14.2151        665
  14.2350        643
  14.2549        655
  14.2747        696
  14.2946        644
  14.3145        668
  14.3344        636
  14.3543        622
  14.3742        651
  14.3940        676
  14.4139        662
  14.4338        639
  14.4537        606
  14.4736        618
  14.4935        604
  14.5134        688
  14.5332        639
  14.5531        637
  14.5730        635
  14.5929        616
  14.6128        655
  14.6327        661
  14.6526        626
  14.6724        605
  14.6923        637
  14.7122        587
  14.7321        590
  14.7520        625
  14.7719        620
  14.7917        645
  14.8116        630
  14.8315        622
  14.8514        644
  14.8713        605
  14.8912        616
  14.9111        615
  14.9309        663
  14.9508        624
  14.9707        581
  14.9906        606
  15.0105        628
  15.0304        576
  15.0502        607
  15.0701        630
  15.0900        606
  15.1099        639
  15.1298        577
  15.1497        623
  15.1696        637
  15.1894        587
  15.2093        622
  15.2292        578
  15.2491        597
  15.2690        638
  15.2889        596
  15.3088        602
  15.3286        633
  15.3485        595
  15.3684        595
  15.3883        586
  15.4082        575
  15.4281        578
  15.4479        573
  15.4678        609
  15.4877        603
  15.5076        594
  15.5275        621
  15.5474        580
  15.5673        603
  15.5871        641
  15.6070        615
  15.6269        575
  15.6468        640
  15.6667        599
  15.6866        623
  15.7065        632
  15.7263        605
  15.7462        582
  15.7661        597
  15.7860        586
  15.8059        568
  15.8258        597
  15.8456        591
  15.8655        624
  15.8854        579
  15.9053        583
  15.9252        580
  15.9451        575
  15.9650        603
  15.9848        606
  16.0047        614
  16.0246        574
  16.0445        614
  16.0644        579
  16.0843        614
  16.1041        578
  16.1240        576
  16.1439        585
  16.1638        597
  16.1837        602
  16.2036        603
  16.2235        622
  16.2433        595
  16.2632        617
  16.2831        642
  16.3030        589
  16.3229        601
  16.3428        575
  16.3627        603
  16.3825        607
  16.4024        579
  16.4223        607
  16.4422        561
  16.4621        564
  16.4820        601
  16.5018        570
  16.5217        549
  16.5416        564
  16.5615        578
  16.5814        598
  16.6013        562
  16.6212        590
  16.6410        566
  16.6609        581
  16.6808        562
  16.7007        579
  16.7206        570
  16.7405        601
  16.7604        562
  16.7802        567
  16.8001        585
  16.8200        575
  16.8399        588
  16.8598        562
  16.8797        569
  16.8995        564
  16.9194        595
  16.9393        589
  16.9592        572
  16.9791        591
  16.9990        551
  17.0189        562
  17.0387        554
  17.0586        565
  17.0785        553
  17.0984        561
  17.1183        598
  17.1382        543
  17.1580        556
  17.1779        590
  17.1978        619
  17.2177        545
  17.2376        578
  17.2575        544
  17.2774        579
  17.2972        499
  17.3171        610
  17.3370        548
  17.3569        551
  17.3768        549
  17.3967        550
  17.4166        638
  17.4364        603
  17.4563        623
  17.4762        614
  17.4961        605
  17.5160        609
  17.5359        611
  17.5557        562
  17.5756        559
  17.5955        541
  17.6154        595
  17.6353        557
  17.6552        579
  17.6751        574
  17.6949        572
  17.7148        582
  17.7347        609
  17.7546        582
  17.7745        577
  17.7944        604
  17.8143        531
  17.8341        525
  17.8540        558
  17.8739        563
  17.8938        547
  17.9137        555
  17.9336        567
  17.9534        563
  17.9733        540
  17.9932        572
  18.0131        521
  18.0330        569
  18.0529        578
  18.0728        563
  18.0926        557
  18.1125        563
  18.1324        563
  18.1523        547
  18.1722        618
  18.1921        566
  18.2119        559
  18.2318        570
  18.2517        534
  18.2716        494
  18.2915        593
  18.3114        561
  18.3313        565
  18.3511        572
  18.3710        555
  18.3909        526
  18.4108        559
  18.4307        580
  18.4506        563
  18.4705        586
  18.4903        600
  18.5102        566
  18.5301        552
  18.5500        473
  18.5699        566
  18.5898        552
  18.6096        571
  18.6295        535
  18.6494        521
  18.6693        536
  18.6892        543
  18.7091        498
  18.7290        529
  18.7488        542
  18.7687        521
  18.7886        516
  18.8085        549
  18.8284        550
  18.8483        528
  18.8682        536
  18.8880        528
  18.9079        536
  18.9278        533
  18.9477        513
  18.9676        533
  18.9875        562
  19.0073        522
  19.0272        572
  19.0471        533
  19.0670        530
  19.0869        553
  19.1068        530
  19.1267        546
  19.1465        540
  19.1664        574
  19.1863        566
  19.2062        534
  19.2261        529
  19.2460        518
  19.2658        538
  19.2857        512
  19.3056        534
  19.3255        544
  19.3454        500
  19.3653        541
  19.3852        528
  19.4050        562
  19.4249        545
  19.4448        522
  19.4647        542
  19.4846        571
  19.5045        577
  19.5244        555
  19.5442        513
  19.5641        500
  19.5840        566
  19.6039        523
  19.6238        544
  19.6437        535
  19.6635        561
  19.6834        519
  19.7033        534
  19.7232        539
  19.7431        573
  19.7630        523
  19.7829        501
  19.8027        562
  19.8226        522
  19.8425        507
  19.8624        530
  19.8823        528
  19.9022        515
  19.9220        516
  19.9419        454
  19.9618        492
  19.9817        526
  20.0016        513
  20.0215        539
  20.0414        514
  20.0612        518
  20.0811        501
  20.1010        523
  20.1209        502
  20.1408        525
  20.1607        528
  20.1806        518
  20.2004        501
  20.2203        529
  20.2402        504
  20.2601        525
  20.2800        532
  20.2999        501
  20.3197        527
  20.3396        458
  20.3595        486
  20.3794        516
  20.3993        511
  20.4192        484
  20.4391        529
  20.4589        504
  20.4788        483
  20.4987        533
  20.5186        495
  20.5385        501
  20.5584        509
  20.5783        495
  20.5981        495
  20.6180        531
  20.6379        530
  20.6578        495
  20.6777        555
  20.6976        473
  20.7174        484
  20.7373        506
  20.7572        498
  20.7771        510
  20.7970        522
  20.8169        513
  20.8368        489
  20.8566        442
  20.8765        518
  20.8964        542
  20.9163        530
  20.9362        531
  20.9561        492
  20.9759        491
  20.9958        531
  21.0157        539
  21.0356        562
  21.0555        498
  21.0754        500
  21.0953        489
  21.1151        506
  21.1350        538
  21.1549        564
  21.1748        517
  21.1947        500
  21.2146        532
  21.2345        524
  21.2543        547
  21.2742        491
  21.2941        468
  21.3140        488
  21.3339        476
  21.3538        518
  21.3736        492
  21.3935        504
  21.4134        519
  21.4333        518
  21.4532        538
  21.4731        467
  21.4930        525
  21.5128        506
  21.5327        503
  21.5526        509
  21.5725        501
  21.5924        501
  21.6123        516
  21.6322        499
  21.6520        498
  21.6719        471
  21.6918        482
  21.7117        512
  21.7316        491
  21.7515        521
  21.7713        512
  21.7912        546
  21.8111        506
  21.8310        505
  21.8509        485
  21.8708        523
  21.8907        499
  21.9105        503
  21.9304        500
  21.9503        540
  21.9702        510
  21.9901        501
  22.0100        510
  22.0298        524
  22.0497        498
  22.0696        510
  22.0895        514
  22.1094        482
  22.1293        511
  22.1492        524
  22.1690        466
  22.1889        500
  22.2088        534
  22.2287        507
  22.2486        566
  22.2685        497
  22.2884        514
  22.3082        470
  22.3281        491
  22.3480        498
  22.3679        491
  22.3878        510
  22.4077        524
  22.4275        524
  22.4474        497
  22.4673        535
  22.4872        511
  22.5071        494
  22.5270        486
  22.5469        537
  22.5667        507
  22.5866        544
  22.6065        546
  22.6264        496
  22.6463        487
  22.6662        545
  22.6861        543
  22.7059        523
  22.7258        545
  22.7457        510
  22.7656        522
  22.7855        520
  22.8054        553
  22.8252        588
  22.8451        531
  22.8650        497
  22.8849        572
  22.9048        530
  22.9247        542
  22.9446        507
  22.9644        570
  22.9843        551
  23.0042        539
  23.0241        574
  23.0440        517
  23.0639        566
  23.0837        607
  23.1036        534
  23.1235        588
  23.1434        521
  23.1633        545
  23.1832        571
  23.2031        561
  23.2229        519
  23.2428        540
  23.2627        595
  23.2826        568
  23.3025        588
  23.3224        550
  23.3423        590
  23.3621        564
  23.3820        581
  23.4019        596
  23.4218        602
  23.4417        614
  23.4616        637
  23.4814        682
  23.5013        638
  23.5212        690
  23.5411        668
  23.5610        741
  23.5809        754
  23.6008        756
  23.6206        778
  23.6405        788
  23.6604        764
  23.6803        785
  23.7002        806
  23.7201        755
  23.7400        752
  23.7598        737
  23.7797        748
  23.7996        725
  23.8195        727
  23.8394        678
  23.8593        760
  23.8791        686
  23.8990        673
  23.9189        642
  23.9388        736
  23.9587        662
  23.9786        629
  23.9985        647
  24.0183        591
  24.0382        610
  24.0581        601
  24.0780        602
  24.0979        615
  24.1178        586
  24.1376        601
  24.1575        619
  24.1774        595
  24.1973        622
  24.2172        589
  24.2371        622
  24.2570        601
  24.2768        611
  24.2967        606
  24.3166        596
  24.3365        595
  24.3564        611
  24.3763        587
  24.3962        608
  24.4160        543
  24.4359        595
  24.4558        569
  24.4757        593
  24.4956        517
  24.5155        586
  24.5353        600
  24.5552        570
  24.5751        549
  24.5950        623
  24.6149        615
  24.6348        579
  24.6547        565
  24.6745        571
  24.6944        586
  24.7143        577
  24.7342        575
  24.7541        579
  24.7740        627
  24.7939        582
  24.8137        637
  24.8336        622
  24.8535        586
  24.8734        629
  24.8933        609
  24.9132        645
  24.9330        657
  24.9529        657
  24.9728        593
  24.9927        607
  25.0126        654
  25.0325        628
  25.0524        646
  25.0722        659
  25.0921        682
  25.1120        662
  25.1319        659
  25.1518        634
  25.1717        652
  25.1915        685
  25.2114        665
  25.2313        630
  25.2512        650
  25.2711        619
  25.2910        668
  25.3109        645
  25.3307        633
  25.3506        667
  25.3705        641
  25.3904        707
  25.4103        642
  25.4302        621
  25.4501        633
  25.4699        615
  25.4898        654
  25.5097        653
  25.5296        677
  25.5495        636
  25.5694        616
  25.5892        659
  25.6091        688
  25.6290        634
  25.6489        642
  25.6688        670
  25.6887        654
  25.7086        614
  25.7284        656
  25.7483        678
  25.7682        709
  25.7881        696
  25.8080        717
  25.8279        683
  25.8478        679
  25.8676        621
  25.8875        675
  25.9074        658
  25.9273        715
  25.9472        674
  25.9671        696
  25.9869        642
  26.0068        698
  26.0267        720
  26.0466        700
  26.0665        693
  26.0864        671
  26.1063        681
  26.1261        678
  26.1460        655
  26.1659        729
  26.1858        714
  26.2057        686
  26.2256        690
  26.2454        704
  26.2653        687
  26.2852        716
  26.3051        728
  26.3250        710
  26.3449        692
  26.3648        705
  26.3846        737
  26.4045        719
  26.4244        707
  26.4443        807
  26.4642        812
  26.4841        757
  26.5040        742
  26.5238        785
  26.5437        730
  26.5636        708
  26.5835        686
  26.6034        708
  26.6233        768
  26.6431        729
  26.6630        747
  26.6829        761
  26.7028        763
  26.7227        736
  26.7426        723
  26.7625        711
  26.7823        775
  26.8022        794
  26.8221        759
  26.8420        738
  26.8619        784
  26.8818        782
  26.9016        798
  26.9215        780
  26.9414        707
  26.9613        799
  26.9812        787
  27.0011        805
  27.0210        752
  27.0408        810
  27.0607        794
  27.0806        780
  27.1005        801
  27.1204        869
  27.1403        803
  27.1602        857
  27.1800        833
  27.1999        828
  27.2198        802
  27.2397        829
  27.2596        810
  27.2795        867
  27.2993        906
  27.3192        881
  27.3391        885
  27.3590        881
  27.3789        881
  27.3988        967
  27.4187        989
  27.4385        997
  27.4584        916
  27.4783        921
  27.4982        974
  27.5181        975
  27.5380       1029
  27.5579       1014
  27.5777       1004
  27.5976       1047
  27.6175       1092
  27.6374       1125
  27.6573       1079
  27.6772       1153
  27.6970       1166
  27.7169       1232
  27.7368       1245
  27.7567       1266
  27.7766       1358
  27.7965       1387
  27.8164       1468
  27.8362       1502
  27.8561       1624
  27.8760       1774
  27.8959       1747
  27.9158       1941
  27.9357       2025
  27.9555       2206
  27.9754       2243
  27.9953       2480
  28.0152       2604
  28.0351       2759
  28.0550       2868
  28.0749       3015
  28.0947       3130
  28.1146       3118
  28.1345       3239
  28.1544       3246
  28.1743       3142
  28.1942       3041
  28.2141       2986
  28.2339       2690
  28.2538       2666
  28.2737       2507
  28.2936       2377
  28.3135       2185
  28.3334       2064
  28.3532       1949
  28.3731       1878
  28.3930       1726
  28.4129       1647
  28.4328       1699
  28.4527       1558
  28.4726       1427
  28.4924       1457
  28.5123       1367
  28.5322       1320
  28.5521       1319
  28.5720       1217
  28.5919       1224
  28.6118       1255
  28.6316       1237
  28.6515       1170
  28.6714       1096
  28.6913       1087
  28.7112       1044
  28.7311       1138
  28.7509       1173
  28.7708       1100
  28.7907       1148
  28.8106       1140
  28.8305       1136
  28.8504       1194
  28.8703       1236
  28.8901       1273
  28.9100       1258
  28.9299       1390
  28.9498       1361
  28.9697       1430
  28.9896       1374
  29.0094       1436
  29.0293       1449
  29.0492       1394
  29.0691       1242
  29.0890       1233
  29.1089       1205
  29.1288       1130
  29.1486       1049
  29.1685        986
  29.1884       1003
  29.2083        965
  29.2282        925
  29.2481        874
  29.2680        899
  29.2878        872
  29.3077        845
  29.3276        854
  29.3475        841
  29.3674        841
  29.3873        840
  29.4071        835
  29.4270        873
  29.4469        840
  29.4668        823
  29.4867        833
  29.5066        796
  29.5265        875
  29.5463        871
  29.5662        796
  29.5861        794
  29.6060        766
  29.6259        808
  29.6458        807
  29.6657        770
  29.6855        813
  29.7054        810
  29.7253        718
  29.7452        781
  29.7651        766
  29.7850        821
  29.8048        829
  29.8247        755
  29.8446        727
  29.8645        746
  29.8844        815
  29.9043        802
  29.9242        817
  29.9440        792
  29.9639        767
  29.9838        794
  30.0037        793
  30.0236        785
  30.0435        774
  30.0633        781
  30.0832        798
  30.1031        735
  30.1230        781
  30.1429        736
  30.1628        751
  30.1827        726
  30.2025        781
  30.2224        695
  30.2423        742
  30.2622        699
  30.2821        703
  30.3020        703
  30.3219        761
  30.3417        705
  30.3616        775
  30.3815        719
  30.4014        754
  30.4213        713
  30.4412        763
  30.4610        775
  30.4809        773
  30.5008        685
  30.5207        762
  30.5406        778
  30.5605        762
  30.5804        753
  30.6002        717
  30.6201        722
  30.6400        733
  30.6599        733
  30.6798        727
  30.6997        731
  30.7196        698
  30.7394        733
  30.7593        743
  30.7792        782
  30.7991        762
  30.8190        739
  30.8389        793
  30.8587        795
  30.8786        739
  30.8985        725
  30.9184        739
  30.9383        769
  30.9582        738
  30.9781        750
  30.9979        702
  31.0178        682
  31.0377        749
  31.0576        754
  31.0775        744
  31.0974        730
  31.1172        758
  31.1371        756
  31.1570        818
  31.1769        763
  31.1968        767
  31.2167        784
  31.2366        760
  31.2564        704
  31.2763        771
  31.2962        819
  31.3161        859
  31.3360        848
  31.3559        879
  31.3758        847
  31.3956        857
  31.4155        909
  31.4354        948
  31.4553       1008
  31.4752        988
  31.4951       1105
  31.5149       1157
  31.5348       1125
  31.5547       1231
  31.5746       1324
  31.5945       1402
  31.6144       1441
  31.6343       1512
  31.6541       1483
  31.6740       1549
  31.6939       1519
  31.7138       1690
  31.7337       1624
  31.7536       1462
  31.7735       1497
  31.7933       1423
  31.8132       1333
  31.8331       1291
  31.8530       1177
  31.8729       1143
  31.8928       1105
  31.9126       1065
  31.9325        994
  31.9524        912
  31.9723        936
  31.9922        870
  32.0121        808
  32.0320        844
  32.0518        816
  32.0717        764
  32.0916        721
  32.1115        729
  32.1314        708
  32.1513        713
  32.1711        707
  32.1910        671
  32.2109        714
  32.2308        697
  32.2507        720
  32.2706        676
  32.2905        708
  32.3103        696
  32.3302        680
  32.3501        648
  32.3700        603
  32.3899        580
  32.4098        609
  32.4297        583
  32.4495        652
  32.4694        572
  32.4893        652
  32.5092        641
  32.5291        607
  32.5490        622
  32.5688        606
  32.5887        616
  32.6086        655
  32.6285        673
  32.6484        672
  32.6683        673
  32.6882        602
  32.7080        639
  32.7279        613
  32.7478        588
  32.7677        661
  32.7876        648
  32.8075        678
  32.8273        633
  32.8472        678
  32.8671        697
  32.8870        660
  32.9069        655
  32.9268        627
  32.9467        663
  32.9665        605
  32.9864        620
  33.0063        694
  33.0262        613
  33.0461        666
  33.0660        653
  33.0859        655
  33.1057        667
  33.1256        652
  33.1455        623
  33.1654        650
  33.1853        618
  33.2052        644
  33.2250        618
  33.2449        603
  33.2648        591
  33.2847        614
  33.3046        567
  33.3245        590
  33.3444        578
  33.3642        577
  33.3841        594
  33.4040        581
  33.4239        551
  33.4438        562
  33.4637        620
  33.4836        553
  33.5034        574
  33.5233        602
  33.5432        603
  33.5631        610
  33.5830        595
  33.6029        599
  33.6227        533
  33.6426        595
  33.6625        597
  33.6824        590
  33.7023        608
  33.7222        615
  33.7421        570
  33.7619        601
  33.7818        630
  33.8017        635
  33.8216        593
  33.8415        654
  33.8614        645
  33.8812        677
  33.9011        659
  33.9210        599
  33.9409        677
  33.9608        679
  33.9807        663
  34.0006        685
  34.0204        647
  34.0403        624
  34.0602        692
  34.0801        645
  34.1000        668
  34.1199        632
  34.1398        688
  34.1596        672
  34.1795        734
  34.1994        713
  34.2193        699
  34.2392        673
  34.2591        726
  34.2789        703
  34.2988        715
  34.3187        657
  34.3386        695
  34.3585        722
  34.3784        700
  34.3983        739
  34.4181        730
  34.4380        715
  34.4579        689
  34.4778        723
  34.4977        670
  34.5176        699
  34.5375        681
  34.5573        723
  34.5772        655
  34.5971        678
  34.6170        647
  34.6369        638
  34.6568        660
  34.6766        636
  34.6965        654
  34.7164        638
  34.7363        641
  34.7562        602
  34.7761        554
  34.7960        560
  34.8158        580
  34.8357        624
  34.8556        572
  34.8755        588
  34.8954        549
  34.9153        550
  34.9351        572
  34.9550        508
  34.9749        539
  34.9948        538
  35.0147        537
  35.0346        534
  35.0545        548
  35.0743        555
  35.0942        534
  35.1141        542
  35.1340        529
  35.1539        474
  35.1738        480
  35.1937        497
  35.2135        476
  35.2334        520
  35.2533        531
  35.2732        501
  35.2931        508
  35.3130        499
  35.3328        524
  35.3527        476
  35.3726        460
  35.3925        500
  35.4124        513
  35.4323        481
  35.4522        482
  35.4720        477
  35.4919        447
  35.5118        451
  35.5317        447
  35.5516        468
  35.5715        437
  35.5914        429
  35.6112        440
  35.6311        426
  35.6510        460
  35.6709        479
  35.6908        447
  35.7107        485
  35.7305        417
  35.7504        395
  35.7703        450
  35.7902        412
  35.8101        452
  35.8300        424
  35.8499        465
  35.8697        419
  35.8896        435
  35.9095        431
  35.9294        439
  35.9493        411
  35.9692        447
  35.9890        437
  36.0089        475
  36.0288        448
  36.0487        434
  36.0686        411
  36.0885        411
  36.1084        449
  36.1282        419
  36.1481        420
  36.1680        457
  36.1879        421
  36.2078        424
  36.2277        404
  36.2476        390
  36.2674        435
  36.2873        422
  36.3072        392
  36.3271        389
  36.3470        449
  36.3669        421
  36.3867        414
  36.4066        373
  36.4265        378
  36.4464        409
  36.4663        415
  36.4862        418
  36.5061        408
  36.5259        401
  36.5458        390
  36.5657        409
  36.5856        387
  36.6055        400
  36.6254        401
  36.6453        412
  36.6651        420
  36.6850        398
  36.7049        396
  36.7248        398
  36.7447        407
  36.7646        364
  36.7844        391
  36.8043        376
  36.8242        377
  36.8441        392
  36.8640        395
  36.8839        394
  36.9038        370
  36.9236        371
  36.9435        395
  36.9634        414
  36.9833        441
  37.0032        382
  37.0231        406
  37.0429        376
  37.0628        398
  37.0827        400
  37.1026        449
  37.1225        368
  37.1424        360
  37.1623        385
  37.1821        387
  37.2020        389
  37.2219        382
  37.2418        372
  37.2617        359
  37.2816        331
  37.3015        373
  37.3213        363
  37.3412        376
  37.3611        399
  37.3810        370
  37.4009        353
  37.4208        378
  37.4406        422
  37.4605        359
  37.4804        348
  37.5003        352
  37.5202        382
  37.5401        363
  37.5600        378
  37.5798        351
  37.5997        353
  37.6196        376
  37.6395        364
  37.6594        373
  37.6793        366
  37.6992        380
  37.7190        395
  37.7389        397
  37.7588        378
  37.7787        380
  37.7986        367
  37.8185        379
  37.8383        361
  37.8582        354
  37.8781        357
  37.8980        402
  37.9179        370
  37.9378        382
  37.9577        339
  37.9775        339
  37.9974        366
  38.0173        369
  38.0372        353
  38.0571        377
  38.0770        349
  38.0968        354
  38.1167        347
  38.1366        343
  38.1565        373
  38.1764        402
  38.1963        383
  38.2162        338
  38.2360        358
  38.2559        352
  38.2758        357
  38.2957        403
  38.3156        364
  38.3355        371
  38.3554        337
  38.3752        341
  38.3951        391
  38.4150        383
  38.4349        335
  38.4548        341
  38.4747        347
  38.4945        358
  38.5144        384
  38.5343        346
  38.5542        343
  38.5741        364
  38.5940        338
  38.6139        360
  38.6337        358
  38.6536        363
  38.6735        344
  38.6934        366
  38.7133        332
  38.7332        369
  38.7531        338
  38.7729        332
  38.7928        326
  38.8127        325
  38.8326        361
  38.8525        354
  38.8724        349
  38.8922        359
  38.9121        350
  38.9320        364
  38.9519        344
  38.9718        343
  38.9917        352
  39.0116        354
  39.0314        347
  39.0513        390
  39.0712        361
  39.0911        337
  39.1110        382
  39.1309        383
  39.1507        373
  39.1706        360
  39.1905        291
  39.2104        341
  39.2303        399
  39.2502        379
  39.2701        339
  39.2899        326
  39.3098        348
  39.3297        343
  39.3496        350
  39.3695        321
  39.3894        355
  39.4093        338
  39.4291        342
  39.4490        308
  39.4689        349
  39.4888        322
  39.5087        335
  39.5286        387
  39.5484        384
  39.5683        386
  39.5882        370
  39.6081        383
  39.6280        383
  39.6479        370
  39.6678        336
  39.6876        328
  39.7075        361
  39.7274        385
  39.7473        356
  39.7672        365
  39.7871        377
  39.8069        395
  39.8268        371
  39.8467        361
  39.8666        396
  39.8865        372
  39.9064        350
  39.9263        331
  39.9461        358
  39.9660        370
  39.9859        405
  40.0058        375
  40.0257        370
  40.0456        374
  40.0655        375
  40.0853        367
  40.1052        385
  40.1251        381
  40.1450        387
  40.1649        358
  40.1848        381
  40.2046        381
  40.2245        403
  40.2444        417
  40.2643        381
  40.2842        388
  40.3041        426
  40.3240        387
  40.3438        401
  40.3637        368
  40.3836        383
  40.4035        410
  40.4234        383
  40.4433        425
  40.4632        404
  40.4830        390
  40.5029        378
  40.5228        424
  40.5427        393
  40.5626        435
  40.5825        444
  40.6023        497
  40.6222        424
  40.6421        456
  40.6620        450
  40.6819        472
  40.7018        498
  40.7217        494
  40.7415        435
  40.7614        519
  40.7813        511
  40.8012        483
  40.8211        509
  40.8410        509
  40.8608        490
  40.8807        524
  40.9006        541
  40.9205        499
  40.9404        536
  40.9603        526
  40.9802        524
  41.0000        526
  41.0199        554
  41.0398        501
  41.0597        539
  41.0796        475
  41.0995        495
  41.1194        488
  41.1392        475
  41.1591        501
  41.1790        482
  41.1989        510
  41.2188        449
  41.2387        456
  41.2585        463
  41.2784        465
  41.2983        440
  41.3182        431
  41.3381        439
  41.3580        429
  41.3779        433
  41.3977        406
  41.4176        434
  41.4375        401
  41.4574        410
  41.4773        420
  41.4972        435
  41.5171        453
  41.5369        383
  41.5568        401
  41.5767        391
  41.5966        404
  41.6165        388
  41.6364        409
  41.6562        404
  41.6761        394
  41.6960        413
  41.7159        388
  41.7358        419
  41.7557        408
  41.7756        393
  41.7954        387
  41.8153        405
  41.8352        396
  41.8551        429
  41.8750        345
  41.8949        396
  41.9147        409
  41.9346        390
  41.9545        352
  41.9744        392
  41.9943        374
  42.0142        384
  42.0341        367
  42.0539        398
  42.0738        390
  42.0937        399
  42.1136        363
  42.1335        401
  42.1534        399
  42.1733        426
  42.1931        411
  42.2130        428
  42.2329        406
  42.2528        381
  42.2727        377
  42.2926        373
  42.3124        321
  42.3323        359
  42.3522        371
  42.3721        370
  42.3920        377
  42.4119        383
  42.4318        378
  42.4516        379
  42.4715        354
  42.4914        412
  42.5113        366
  42.5312        397
  42.5511        397
  42.5710        403
  42.5908        408
  42.6107        387
  42.6306        370
  42.6505        369
  42.6704        402
  42.6903        409
  42.7101        407
  42.7300        389
  42.7499        401
  42.7698        401
  42.7897        362
  42.8096        374
  42.8295        395
  42.8493        401
  42.8692        403
  42.8891        390
  42.9090        397
  42.9289        403
  42.9488        366
  42.9686        426
  42.9885        349
  43.0084        400
  43.0283        436
  43.0482        391
  43.0681        418
  43.0880        392
  43.1078        391
  43.1277        393
  43.1476        398
  43.1675        376
  43.1874        418
  43.2073        382
  43.2272        385
  43.2470        391
  43.2669        394
  43.2868        417
  43.3067        389
  43.3266        411
  43.3465        405
  43.3663        398
  43.3862        381
  43.4061        412
  43.4260        415
  43.4459        396
  43.4658        395
  43.4857        412
  43.5055        419
  43.5254        408
  43.5453        410
  43.5652        451
  43.5851        384
  43.6050        370
  43.6249        408
  43.6447        421
  43.6646        406
  43.6845        400
  43.7044        388
  43.7243        429
  43.7442        438
  43.7640        412
  43.7839        426
  43.8038        397
  43.8237        395
  43.8436        391
  43.8635        413
  43.8834        365
  43.9032        408
  43.9231        414
  43.9430        387
  43.9629        444
  43.9828        451
  44.0027        411
  44.0225        397
  44.0424        404
  44.0623        381
  44.0822        419
  44.1021        430
  44.1220        427
  44.1419        420
  44.1617        437
  44.1816        426
  44.2015        402
  44.2214        387
  44.2413        393
  44.2612        422
  44.2811        431
  44.3009        424
  44.3208        455
  44.3407        435
  44.3606        412
  44.3805        427
  44.4004        469
  44.4202        444
  44.4401        447
  44.4600        433
  44.4799        439
  44.4998        452
  44.5197        437
  44.5396        477
  44.5594        450
  44.5793        461
  44.5992        434
  44.6191        433
  44.6390        426
  44.6589        439
  44.6788        437
  44.6986        420
  44.7185        465
  44.7384        431
  44.7583        478
  44.7782        447
  44.7981        449
  44.8179        485
  44.8378        483
  44.8577        471
  44.8776        452
  44.8975        513
  44.9174        477
  44.9373        505
  44.9571        473
  44.9770        497
  44.9969        539
  45.0168        544
  45.0367        511
  45.0566        503
  45.0764        497
  45.0963        485
  45.1162        509
  45.1361        574
  45.1560        578
  45.1759        559
  45.1958        587
  45.2156        558
  45.2355        588
  45.2554        634
  45.2753        622
  45.2952        654
  45.3151        633
  45.3350        643
  45.3548        673
  45.3747        695
  45.3946        687
  45.4145        692
  45.4344        777
  45.4543        759
  45.4741        777
  45.4940        764
  45.5139        751
  45.5338        731
  45.5537        746
  45.5736        718
  45.5935        721
  45.6133        731
  45.6332        690
  45.6531        676
  45.6730        649
  45.6929        671
  45.7128        620
  45.7327        624
  45.7525        615
  45.7724        583
  45.7923        659
  45.8122        566
  45.8321        557
  45.8520        571
  45.8718        573
  45.8917        541
  45.9116        567
  45.9315        520
  45.9514        547
  45.9713        477
  45.9912        479
  46.0110        536
  46.0309        491
  46.0508        535
  46.0707        487
  46.0906        489
  46.1105        477
  46.1303        526
  46.1502        503
  46.1701        509
  46.1900        493
  46.2099        504
  46.2298        486
  46.2497        500
  46.2695        478
  46.2894        513
  46.3093        512
  46.3292        454
  46.3491        473
  46.3690        451
  46.3889        513
  46.4087        501
  46.4286        498
  46.4485        485
  46.4684        506
  46.4883        507
  46.5082        467
  46.5280        499
  46.5479        526
  46.5678        507
  46.5877        531
  46.6076        519
  46.6275        493
  46.6474        490
  46.6672        529
  46.6871        500
  46.7070        505
  46.7269        503
  46.7468        499
  46.7667        532
  46.7865        458
  46.8064        513
  46.8263        495
  46.8462        520
  46.8661        509
  46.8860        545
  46.9059        517
  46.9257        533
  46.9456        522
  46.9655        484
  46.9854        508
  47.0053        518
  47.0252        513
  47.0451        542
  47.0649        541
  47.0848        520
  47.1047        548
  47.1246        573
  47.1445        573
  47.1644        575
  47.1842        553
  47.2041        595
  47.2240        602
  47.2439        585
  47.2638        618
  47.2837        594
  47.3036        618
  47.3234        636
  47.3433        633
  47.3632        656
  47.3831        718
  47.4030        637
  47.4229        692
  47.4428        693
  47.4626        711
  47.4825        711
  47.5024        706
  47.5223        722
  47.5422        693
  47.5621        673
  47.5819        717
  47.6018        693
  47.6217        680
  47.6416        667
  47.6615        649
  47.6814        656
  47.7013        656
  47.7211        650
  47.7410        651
  47.7609        594
  47.7808        650
  47.8007        610
  47.8206        635
  47.8404        594
  47.8603        620
  47.8802        580
  47.9001        609
  47.9200        603
  47.9399        569
  47.9598        615
  47.9796        555
  47.9995        587
  48.0194        612
  48.0393        557
  48.0592        593
  48.0791        539
  48.0990        585
  48.1188        553
  48.1387        571
  48.1586        573
  48.1785        569
  48.1984        495
  48.2183        547
  48.2381        538
  48.2580        546
  48.2779        532
  48.2978        507
  48.3177        478
  48.3376        446
  48.3575        500
  48.3773        472
  48.3972        531
  48.4171        468
  48.4370        526
  48.4569        478
  48.4768        497
  48.4967        538
  48.5165        494
  48.5364        531
  48.5563        497
  48.5762        523
  48.5961        470
  48.6160        501
  48.6358        508
  48.6557        492
  48.6756        444
  48.6955        527
  48.7154        505
  48.7353        477
  48.7552        493
  48.7750        445
  48.7949        461
  48.8148        529
  48.8347        479
  48.8546        463
  48.8745        492
  48.8943        507
  48.9142        473
  48.9341        503
  48.9540        455
  48.9739        517
  48.9938        465
  49.0137        499
  49.0335        496
  49.0534        499
  49.0733        521
  49.0932        496
  49.1131        441
  49.1330        442
  49.1529        493
  49.1727        474
  49.1926        460
  49.2125        456
  49.2324        469
  49.2523        441
  49.2722        457
  49.2920        430
  49.3119        470
  49.3318        475
  49.3517        498
  49.3716        442
  49.3915        441
  49.4114        430
  49.4312        424
  49.4511        421
  49.4710        430
  49.4909        403
  49.5108        408
  49.5307        429
  49.5506        437
  49.5704        375
  49.5903        445
  49.6102        445
  49.6301        448
  49.6500        430
  49.6699        417
  49.6897        481
  49.7096        430
  49.7295        455
  49.7494        425
  49.7693        398
  49.7892        411
  49.8091        392
  49.8289        387
  49.8488        388
  49.8687        388
  49.8886        428
  49.9085        366
  49.9284        404
  49.9482        419
  49.9681        422
  49.9880        406
  50.0079        412
  50.0278        408
  50.0477        379
  50.0676        410
  50.0874        417
  50.1073        409
  50.1272        365
  50.1471        379
  50.1670        376
  50.1869        412
  50.2068        368
  50.2266        408
  50.2465        384
  50.2664        431
  50.2863        412
  50.3062        392
  50.3261        382
  50.3459        420
  50.3658        408
  50.3857        400
  50.4056        420
  50.4255        420
  50.4454        340
  50.4653        369
  50.4851        414
  50.5050        391
  50.5249        360
  50.5448        405
  50.5647        413
  50.5846        417
  50.6045        424
  50.6243        435
  50.6442        419
  50.6641        405
  50.6840        394
  50.7039        384
  50.7238        432
  50.7436        417
  50.7635        438
  50.7834        432
  50.8033        421
  50.8232        418
  50.8431        384
  50.8630        443
  50.8828        429
  50.9027        412
  50.9226        431
  50.9425        411
  50.9624        421
  50.9823        407
  51.0021        421
  51.0220        358
  51.0419        420
  51.0618        434
  51.0817        446
  51.1016        392
  51.1215        400
  51.1413        406
  51.1612        418
  51.1811        404
  51.2010        411
  51.2209        404
  51.2408        356
  51.2607        413
  51.2805        413
  51.3004        351
  51.3203        376
  51.3402        409
  51.3601        418
  51.3800        390
  51.3998        410
  51.4197        422
  51.4396        446
  51.4595        421
  51.4794        416
  51.4993        431
  51.5192        365
  51.5390        380
  51.5589        424
  51.5788        416
  51.5987        422
  51.6186        456
  51.6385        433
  51.6584        401
  51.6782        401
  51.6981        450
  51.7180        438
  51.7379        418
  51.7578        429
  51.7777        437
  51.7975        458
  51.8174        449
  51.8373        414
  51.8572        458
  51.8771        444
  51.8970        424
  51.9169        471
  51.9367        425
  51.9566        431
  51.9765        474
  51.9964        448
  52.0163        457
  52.0362        509
  52.0560        456
  52.0759        464
  52.0958        479
  52.1157        469
  52.1356        466
  52.1555        461
  52.1754        470
  52.1952        471
  52.2151        474
  52.2350        437
  52.2549        443
  52.2748        462
  52.2947        408
  52.3146        457
  52.3344        479
  52.3543        421
  52.3742        477
  52.3941        429
  52.4140        426
  52.4339        447
  52.4537        457
  52.4736        468
  52.4935        423
  52.5134        424
  52.5333        437
  52.5532        443
  52.5731        423
  52.5929        426
  52.6128        426
  52.6327        420
  52.6526        436
  52.6725        463
  52.6924        471
  52.7123        450
  52.7321        392
  52.7520        424
  52.7719        430
  52.7918        483
  52.8117        427
  52.8316        434
  52.8514        426
  52.8713        478
  52.8912        404
  52.9111        438
  52.9310        419
  52.9509        464
  52.9708        481
  52.9906        433
  53.0105        433
  53.0304        433
  53.0503        420
  53.0702        456
  53.0901        458
  53.1099        438
  53.1298        478
  53.1497        414
  53.1696        416
  53.1895        466
  53.2094        450
  53.2293        446
  53.2491        486
  53.2690        426
  53.2889        427
  53.3088        454
  53.3287        448
  53.3486        422
  53.3685        471
  53.3883        426
  53.4082        414
  53.4281        442
  53.4480        420
  53.4679        403
  53.4878        443
  53.5076        466
  53.5275        459
  53.5474        478
  53.5673        469
  53.5872        517
  53.6071        461
  53.6270        478
  53.6468        464
  53.6667        413
  53.6866        478
  53.7065        458
  53.7264        524
  53.7463        447
  53.7661        454
  53.7860        482
  53.8059        492
  53.8258        505
  53.8457        467
  53.8656        518
  53.8855        501
  53.9053        534
  53.9252        516
  53.9451        552
  53.9650        569
  53.9849        517
  54.0048        521
  54.0247        555
  54.0445        595
  54.0644        642
  54.0843        652
  54.1042        600
  54.1241        654
  54.1440        667
  54.1638        635
  54.1837        684
  54.2036        676
  54.2235        678
  54.2434        708
  54.2633        736
  54.2832        755
  54.3030        752
  54.3229        684
  54.3428        743
  54.3627        772
  54.3826        791
  54.4025        799
  54.4224        724
  54.4422        809
  54.4621        803
  54.4820        769
  54.5019        724
  54.5218        733
  54.5417        712
  54.5615        801
  54.5814        713
  54.6013        647
  54.6212        654
  54.6411        655
  54.6610        660
  54.6809        666
  54.7007        617
  54.7206        604
  54.7405        587
  54.7604        611
  54.7803        621
  54.8002        553
  54.8200        564
  54.8399        565
  54.8598        575
  54.8797        539
  54.8996        533
  54.9195        513
  54.9394        553
  54.9592        547
  54.9791        513
  54.9990        495
  55.0189        533
  55.0388        491
  55.0587        510
  55.0786        496
  55.0984        517
  55.1183        458
  55.1382        466
  55.1581        489
  55.1780        452
  55.1979        411
  55.2177        444
  55.2376        458
  55.2575        446
  55.2774        476
  55.2973        465
  55.3172        403
  55.3371        431
  55.3569        427
  55.3768        444
  55.3967        442
  55.4166        425
  55.4365        435
  55.4564        432
  55.4763        423
  55.4961        439
  55.5160        473
  55.5359        430
  55.5558        433
  55.5757        412
  55.5956        423
  55.6154        400
  55.6353        432
  55.6552        427
  55.6751        448
  55.6950        434
  55.7149        435
  55.7348        421
  55.7546        434
  55.7745        421
  55.7944        419
  55.8143        442
  55.8342        436
  55.8541        438
  55.8739        438
  55.8938        413
  55.9137        384
  55.9336        474
  55.9535        424
  55.9734        457
  55.9933        416
  56.0131        418
  56.0330        414
  56.0529        406
  56.0728        448
  56.0927        431
  56.1126        424
  56.1325        382
  56.1523        431
  56.1722        427
  56.1921        424
  56.2120        441
  56.2319        408
  56.2518        415
  56.2716        427
  56.2915        422
  56.3114        412
  56.3313        470
  56.3512        426
  56.3711        457
  56.3910        428
  56.4108        405
  56.4307        435
  56.4506        432
  56.4705        426
  56.4904        412
  56.5103        399
  56.5302        412
  56.5500        410
  56.5699        418
  56.5898        475
  56.6097        420
  56.6296        414
  56.6495        435
  56.6693        436
  56.6892        456
  56.7091        456
  56.7290        434
  56.7489        446
  56.7688        421
  56.7887        415
  56.8085        425
  56.8284        410
  56.8483        412
  56.8682        396
  56.8881        403
  56.9080        423
  56.9278        426
  56.9477        397
  56.9676        445
  56.9875        452
  57.0074        422
  57.0273        425
  57.0472        418
  57.0670        441
  57.0869        462
  57.1068        421
  57.1267        404
  57.1466        454
  57.1665        465
  57.1864        391
  57.2062        425
  57.2261        405
  57.2460        456
  57.2659        470
  57.2858        418
  57.3057        448
  57.3255        429
  57.3454        455
  57.3653        426
  57.3852        422
  57.4051        429
  57.4250        457
  57.4449        492
  57.4647        475
  57.4846        428
  57.5045        453
  57.5244        485
  57.5443        526
  57.5642        451
  57.5841        498
  57.6039        444
  57.6238        443
  57.6437        451
  57.6636        477
  57.6835        514
  57.7034        538
  57.7232        484
  57.7431        457
  57.7630        490
  57.7829        517
  57.8028        527
  57.8227        548
  57.8426        522
  57.8624        534
  57.8823        518
  57.9022        519
  57.9221        537
  57.9420        524
  57.9619        602
  57.9817        564
  58.0016        566
  58.0215        498
  58.0414        529
  58.0613        525
  58.0812        548
  58.1011        562
  58.1209        545
  58.1408        517
  58.1607        538
  58.1806        570
  58.2005        528
  58.2204        568
  58.2403        525
  58.2601        499
  58.2800        570
  58.2999        539
  58.3198        502
  58.3397        490
  58.3596        524
  58.3794        528
  58.3993        516
  58.4192        499
  58.4391        506
  58.4590        515
  58.4789        466
  58.4988        504
  58.5186        496
  58.5385        467
  58.5584        487
  58.5783        492
  58.5982        512
  58.6181        443
  58.6380        472
  58.6578        475
  58.6777        469
  58.6976        435
  58.7175        446
  58.7374        453
  58.7573        437
  58.7771        408
  58.7970        431
  58.8169        479
  58.8368        431
  58.8567        418
  58.8766        425
  58.8965        450
  58.9163        438
  58.9362        400
  58.9561        390
  58.9760        406
  58.9959        396
  59.0158        418
  59.0356        394
  59.0555        366
  59.0754        422
  59.0953        411
  59.1152        400
  59.1351        399
  59.1550        413
  59.1748        374
  59.1947        405
  59.2146        379
  59.2345        395
  59.2544        376
  59.2743        404
  59.2942        387
  59.3140        389
  59.3339        383
  59.3538        379
  59.3737        386
  59.3936        384
  59.4135        402
  59.4333        369
  59.4532        369
  59.4731        378
  59.4930        395
  59.5129        359
  59.5328        371
  59.5527        358
  59.5725        342
  59.5924        356
  59.6123        340
  59.6322        372
  59.6521        368
  59.6720        380
  59.6918        318
  59.7117        323
  59.7316        360
  59.7515        324
  59.7714        373
  59.7913        349
  59.8112        359
  59.8310        348
  59.8509        379
  59.8708        366
  59.8907        346
  59.9106        350
  59.9305        354
  59.9504        357
  59.9702        354
  59.9901        372
  60.0100        361
  60.0299        373
  60.0498        351
  60.0697        352
  60.0895        355
  60.1094        375
  60.1293        400
  60.1492        384
  60.1691        381
  60.1890        390
  60.2089        369
  60.2287        403
  60.2486        380
  60.2685        322
  60.2884        366
  60.3083        361
  60.3282        338
  60.3481        339
  60.3679        350
  60.3878        368
  60.4077        361
  60.4276        333
  60.4475        360
  60.4674        355
  60.4872        314
  60.5071        352
  60.5270        310
  60.5469        362
  60.5668        341
  60.5867        331
  60.6066        348
  60.6264        341
  60.6463        346
  60.6662        315
  60.6861        326
  60.7060        372
  60.7259        334
  60.7457        332
  60.7656        375
  60.7855        333
  60.8054        325
  60.8253        316
  60.8452        320
  60.8651        371
  60.8849        337
  60.9048        333
  60.9247        319
  60.9446        291
  60.9645        331
  60.9844        341
  61.0043        320
  61.0241        337
  61.0440        320
  61.0639        311
  61.0838        301
  61.1037        359
  61.1236        328
  61.1434        298
  61.1633        309
  61.1832        308
  61.2031        276
  61.2230        313
  61.2429        325
  61.2628        297
  61.2826        339
  61.3025        361
  61.3224        324
  61.3423        313
  61.3622        331
  61.3821        312
  61.4020        328
  61.4218        349
  61.4417        320
  61.4616        352
  61.4815        301
  61.5014        315
  61.5213        303
  61.5411        302
  61.5610        299
  61.5809        322
  61.6008        313
  61.6207        333
  61.6406        303
  61.6605        323
  61.6803        353
  61.7002        319
  61.7201        312
  61.7400        347
  61.7599        320
  61.7798        337
  61.7996        342
  61.8195        306
  61.8394        323
  61.8593        332
  61.8792        330
  61.8991        359
  61.9190        309
  61.9388        331
  61.9587        317
  61.9786        306
  61.9985        299
  62.0184        311
  62.0383        323
  62.0582        315
  62.0780        329
  62.0979        324
  62.1178        323
  62.1377        299
  62.1576        327
  62.1775        306
  62.1973        323
  62.2172        333
  62.2371        316
  62.2570        299
  62.2769        315
  62.2968        331
  62.3167        316
  62.3365        330
  62.3564        325
  62.3763        311
  62.3962        309
  62.4161        318
  62.4360        343
  62.4559        348
  62.4757        346
  62.4956        311
  62.5155        342
  62.5354        321
  62.5553        308
  62.5752        318
  62.5950        325
  62.6149        335
  62.6348        302
  62.6547        352
  62.6746        297
  62.6945        309
  62.7144        345
  62.7342        320
  62.7541        288
  62.7740        278
  62.7939        296
  62.8138        337
  62.8337        264
  62.8535        308
  62.8734        299
  62.8933        304
  62.9132        297
  62.9331        329
  62.9530        322
  62.9729        285
  62.9927        307
  63.0126        284
  63.0325        322
  63.0524        288
  63.0723        306
  63.0922        285
  63.1121        329
  63.1319        296
  63.1518        306
  63.1717        319
  63.1916        283
  63.2115        287
  63.2314        253
  63.2512        297
  63.2711        285
  63.2910        300
  63.3109        292
  63.3308        280
  63.3507        345
  63.3706        296
  63.3904        328
  63.4103        266
  63.4302        298
  63.4501        294
  63.4700        293
  63.4899        296
  63.5098        287
  63.5296        292
  63.5495        295
  63.5694        285
  63.5893        309
  63.6092        280
  63.6291        301
  63.6489        277
  63.6688        291
  63.6887        276
  63.7086        277
  63.7285        260
  63.7484        281
  63.7683        275
  63.7881        256
  63.8080        271
  63.8279        252
  63.8478        282
  63.8677        282
  63.8876        298
  63.9074        310
  63.9273        267
  63.9472        286
  63.9671        294
  63.9870        272
  64.0069        264
  64.0268        285
  64.0466        283
  64.0665        275
  64.0864        263
  64.1063        286
  64.1262        286
  64.1461        285
  64.1660        268
  64.1858        277
  64.2057        272
  64.2256        277
  64.2455        302
  64.2654        296
  64.2853        275
  64.3051        286
  64.3250        263
  64.3449        284
  64.3648        270
  64.3847        290
  64.4046        292
  64.4245        246
  64.4443        248
  64.4642        280
  64.4841        263
  64.5040        259
  64.5239        285
  64.5438        279
  64.5637        267
  64.5835        271
  64.6034        253
  64.6233        266
  64.6432        302
  64.6631        261
  64.6830        255
  64.7028        279
  64.7227        297
  64.7426        262
  64.7625        253
  64.7824        289
  64.8023        257
  64.8222        305
  64.8420        308
  64.8619        290
  64.8818        244
  64.9017        270
  64.9216        265
  64.9415        315
  64.9613        269
  64.9812        289
  65.0011        274
  65.0210        266
  65.0409        270
  65.0608        254
  65.0807        271
  65.1005        277
  65.1204        285
  65.1403        285
  65.1602        313
  65.1801        296
  65.2000        269
  65.2199        271
  65.2397        289
  65.2596        257
  65.2795        250
  65.2994        276
  65.3193        272
  65.3392        256
  65.3590        257
  65.3789        272
  65.3988        287
  65.4187        281
  65.4386        304
  65.4585        245
  65.4784        260
  65.4982        281
  65.5181        283
  65.5380        263
  65.5579        258
  65.5778        281
  65.5977        281
  65.6176        267
  65.6374        256
  65.6573        277
  65.6772        277
  65.6971        274
  65.7170        292
  65.7369        288
  65.7567        276
  65.7766        260
  65.7965        272
  65.8164        264
  65.8363        277
  65.8562        260
  65.8761        270
  65.8959        264
  65.9158        269
  65.9357        283
  65.9556        289
  65.9755        296
  65.9954        262
  66.0152        291
  66.0351        257
  66.0550        301
  66.0749        304
  66.0948        268
  66.1147        260
  66.1346        281
  66.1544        260
  66.1743        312
  66.1942        343
  66.2141        295
  66.2340        342
  66.2539        305
  66.2738        324
  66.2936        302
  66.3135        290
  66.3334        286
  66.3533        314
  66.3732        314
  66.3931        333
  66.4129        294
  66.4328        314
  66.4527        284
  66.4726        296
  66.4925        293
  66.5124        336
  66.5323        317
  66.5521        287
  66.5720        300
  66.5919        256
  66.6118        317
  66.6317        295
  66.6516        300
  66.6714        285
  66.6913        307
  66.7112        285
  66.7311        256
  66.7510        277
  66.7709        263
  66.7908        265
  66.8106        315
  66.8305        273
  66.8504        274
  66.8703        277
  66.8902        244
  66.9101        280
  66.9300        280
  66.9498        272
  66.9697        284
  66.9896        280
  67.0095        260
  67.0294        268
  67.0493        252
  67.0691        290
  67.0890        264
  67.1089        252
  67.1288        271
  67.1487        275
  67.1686        286
  67.1885        286
  67.2083        277
  67.2282        259
  67.2481        273
  67.2680        276
  67.2879        272
  67.3078        278
  67.3277        257
  67.3475        271
  67.3674        259
  67.3873        260
  67.4072        279
  67.4271        256
  67.4470        266
  67.4668        271
  67.4867        269
  67.5066        246
  67.5265        263
  67.5464        282
  67.5663        256
  67.5862        274
  67.6060        265
  67.6259        259
  67.6458        296
  67.6657        306
  67.6856        234
  67.7055        241
  67.7253        246
  67.7452        269
  67.7651        267
  67.7850        271
  67.8049        238
  67.8248        278
  67.8447        241
  67.8645        257
  67.8844        258
  67.9043        241
  67.9242        255
  67.9441        227
  67.9640        278
  67.9839        247
  68.0037        254
  68.0236        240
  68.0435        269
  68.0634        255
  68.0833        270
  68.1032        252
  68.1230        230
  68.1429        219
  68.1628        247
  68.1827        289
  68.2026        247
  68.2225        250
  68.2424        272
  68.2622        251
  68.2821        266
  68.3020        246
  68.3219        238
  68.3418        243
  68.3617        271
  68.3816        247
  68.4014        235
  68.4213        246
  68.4412        252
  68.4611        242
  68.4810        244
  68.5009        254
  68.5207        240
  68.5406        261
  68.5605        251
  68.5804        259
  68.6003        271
  68.6202        257
  68.6401        266
  68.6599        285
  68.6798        246
  68.6997        245
  68.7196        243
  68.7395        264
  68.7594        286
  68.7792        266
  68.7991        254
  68.8190        259
  68.8389        254
  68.8588        278
  68.8787        243
  68.8986        246
  68.9184        260
  68.9383        255
  68.9582        265
  68.9781        245
  68.9980        249
  69.0179        278
  69.0378        262
  69.0576        244
  69.0775        253
  69.0974        265
  69.1173        259
  69.1372        259
  69.1571        260
  69.1769        269
  69.1968        259
  69.2167        252
  69.2366        273
  69.2565        251
  69.2764        252
  69.2963        253
  69.3161        285
  69.3360        263
  69.3559        265
  69.3758        288
  69.3957        235
  69.4156        235
  69.4355        230
  69.4553        245
  69.4752        273
  69.4951        272
  69.5150        250
  69.5349        241
  69.5548        253
  69.5746        255
  69.5945        286
  69.6144        251
  69.6343        260
  69.6542        252
  69.6741        243
  69.6940        232
  69.7138        276
  69.7337        262
  69.7536        245
  69.7735        232
  69.7934        259
  69.8133        237
  69.8331        270
  69.8530        252
  69.8729        238
  69.8928        241
  69.9127        234
  69.9326        236
  69.9525        281
  69.9723        243
  69.9922        263
  70.0121        253
  70.0320        234
  70.0519        240
  70.0718        250
  70.0917        261
  70.1115        244
  70.1314        237
  70.1513        247
  70.1712        235
  70.1911        262
  70.2110        231
  70.2308        241
  70.2507        257
  70.2706        251
  70.2905        252
  70.3104        242
  70.3303        240
  70.3502        227
  70.3700        240
  70.3899        264
  70.4098        251
  70.4297        235
  70.4496        249
  70.4695        253
  70.4894        243
  70.5092        261
  70.5291        229
  70.5490        239
  70.5689        246
  70.5888        239
  70.6087        262
  70.6285        287
  70.6484        241
  70.6683        235
  70.6882        260
  70.7081        256
  70.7280        263
  70.7479        230
  70.7677        249
  70.7876        238
  70.8075        236
  70.8274        246
  70.8473        240
  70.8672        258
  70.8870        275
  70.9069        273
  70.9268        261
  70.9467        245
  70.9666        250
  70.9865        244
  71.0064        246
  71.0262        262
  71.0461        254
  71.0660        253
  71.0859        227
  71.1058        259
  71.1257        240
  71.1456        261
  71.1654        267
  71.1853        266
  71.2052        267
  71.2251        268
  71.2450        271
  71.2649        246
  71.2847        253
  71.3046        269
  71.3245        272
  71.3444        257
  71.3643        244
  71.3842        249
  71.4041        262
  71.4239        269
  71.4438        251
  71.4637        242
  71.4836        246
  71.5035        215
  71.5234        239
  71.5433        250
  71.5631        257
  71.5830        257
  71.6029        249
  71.6228        293
  71.6427        250
  71.6626        285
  71.6824        255
  71.7023        250
  71.7222        233
  71.7421        225
  71.7620        273
  71.7819        241
  71.8018        251
  71.8216        227
  71.8415        252
  71.8614        279
  71.8813        253
  71.9012        223
  71.9211        270
  71.9409        272
  71.9608        267
  71.9807        263
  72.0006        252
  72.0205        246
  72.0404        270
  72.0603        288
  72.0801        241
  72.1000        266
  72.1199        284
  72.1398        289
  72.1597        269
  72.1796        259
  72.1995        269
  72.2193        276
  72.2392        264
  72.2591        263
  72.2790        246
  72.2989        274
  72.3188        252
  72.3386        285
  72.3585        280
  72.3784        279
  72.3983        274
  72.4182        262
  72.4381        271
  72.4580        281
  72.4778        249
  72.4977        231
  72.5176        246
  72.5375        280
  72.5574        272
  72.5773        260
  72.5971        259
  72.6170        239
  72.6369        258
  72.6568        257
  72.6767        265
  72.6966        249
  72.7165        249
  72.7363        268
  72.7562        248
  72.7761        270
  72.7960        268
  72.8159        283
  72.8358        265
  72.8557        251
  72.8755        254
  72.8954        252
  72.9153        279
  72.9352        280
  72.9551        251
  72.9750        283
  72.9948        264
  73.0147        267
  73.0346        293
  73.0545        257
  73.0744        278
  73.0943        267
  73.1142        289
  73.1340        272
  73.1539        262
  73.1738        275
  73.1937        273
  73.2136        275
  73.2335        267
  73.2534        281
  73.2732        278
  73.2931        296
  73.3130        273
  73.3329        296
  73.3528        310
  73.3727        295
  73.3925        312
  73.4124        307
  73.4323        293
  73.4522        273
  73.4721        288
  73.4920        306
  73.5119        283
  73.5317        303
  73.5516        314
  73.5715        298
  73.5914        290
  73.6113        297
  73.6312        298
  73.6510        299
  73.6709        302
  73.6908        321
  73.7107        274
  73.7306        315
  73.7505        302
  73.7704        280
  73.7902        297
  73.8101        300
  73.8300        300
  73.8499        308
  73.8698        298
  73.8897        275
  73.9096        272
  73.9294        286
  73.9493        258
  73.9692        314
  73.9891        279
  74.0090        312
  74.0289        274
  74.0487        270
  74.0686        253
  74.0885        254
  74.1084        267
  74.1283        290
  74.1482        276
  74.1681        291
  74.1879        272
  74.2078        304
  74.2277        303
  74.2476        257
  74.2675        279
  74.2874        277
  74.3073        275
  74.3271        275
  74.3470        264
  74.3669        272
  74.3868        274
  74.4067        275
  74.4266        280
  74.4464        257
  74.4663        243
  74.4862        244
  74.5061        283
  74.5260        252
  74.5459        261
  74.5658        265
  74.5856        268
  74.6055        298
  74.6254        257
  74.6453        266
  74.6652        289
  74.6851        273
  74.7049        248
  74.7248        256
  74.7447        269
  74.7646        261
  74.7845        292
  74.8044        259
  74.8243        274
  74.8441        260
  74.8640        268
  74.8839        298
  74.9038        286
  74.9237        281
  74.9436        297
  74.9635        261
  74.9833        275
  75.0032        254
  75.0231        334
  75.0430        276
  75.0629        286
  75.0828        298
  75.1026        289
  75.1225        287
  75.1424        285
  75.1623        286
  75.1822        287
  75.2021        269
  75.2220        283
  75.2418        296
  75.2617        290
  75.2816        300
  75.3015        320
  75.3214        295
  75.3413        281
  75.3612        298
  75.3810        317
  75.4009        286
  75.4208        281
  75.4407        277
  75.4606        287
  75.4805        281
  75.5003        295
  75.5202        301
  75.5401        326
  75.5600        305
  75.5799        288
  75.5998        331
  75.6197        313
  75.6395        295
  75.6594        283
  75.6793        296
  75.6992        319
  75.7191        343
  75.7390        339
  75.7588        318
  75.7787        289
  75.7986        301
  75.8185        275
  75.8384        301
  75.8583        306
  75.8782        307
  75.8980        311
  75.9179        309
  75.9378        300
  75.9577        317
  75.9776        297
  75.9975        298
  76.0174        345
  76.0372        298
  76.0571        297
  76.0770        317
  76.0969        305
  76.1168        295
  76.1367        278
  76.1565        289
  76.1764        284
  76.1963        293
  76.2162        260
  76.2361        279
  76.2560        297
  76.2759        305
  76.2957        307
  76.3156        299
  76.3355        317
  76.3554        303
  76.3753        284
  76.3952        317
  76.4151        296
  76.4349        311
  76.4548        316
  76.4747        312
  76.4946        298
  76.5145        324
  76.5344        278
  76.5542        297
  76.5741        329
  76.5940        318
  76.6139        311
  76.6338        333
  76.6537        319
  76.6736        311
  76.6934        333
  76.7133        337
  76.7332        324
  76.7531        301
  76.7730        278
  76.7929        301
  76.8127        288
  76.8326        311
  76.8525        321
  76.8724        295
  76.8923        339
  76.9122        299
  76.9321        310
  76.9519        336
  76.9718        340
  76.9917        338
  77.0116        327
  77.0315        317
  77.0514        331
  77.0713        329
  77.0911        319
  77.1110        282
  77.1309        297
  77.1508        290
  77.1707        291
  77.1906        285
  77.2104        308
  77.2303        319
  77.2502        293
  77.2701        287
  77.2900        330
  77.3099        305
  77.3298        303
  77.3496        299
  77.3695        306
  77.3894        318
  77.4093        316
  77.4292        278
  77.4491        289
  77.4690        298
  77.4888        260
  77.5087        276
  77.5286        301
  77.5485        287
  77.5684        290
  77.5883        289
  77.6081        266
  77.6280        282
  77.6479        281
  77.6678        292
  77.6877        291
  77.7076        284
  77.7275        263
  77.7473        295
  77.7672        259
  77.7871        268
  77.8070        287
  77.8269        241
  77.8468        271
  77.8666        282
  77.8865        261
  77.9064        291
  77.9263        254
  77.9462        258
  77.9661        276
  77.9860        264
  78.0058        250
  78.0257        260
  78.0456        294
  78.0655        252
  78.0854        283
  78.1053        236
  78.1252        247
  78.1450        239
  78.1649        267
  78.1848        281
  78.2047        240
  78.2246        256
  78.2445        270
  78.2643        273
  78.2842        280
  78.3041        234
  78.3240        291
  78.3439        234
  78.3638        259
  78.3837        263
  78.4035        270
  78.4234        249
  78.4433        266
  78.4632        259
  78.4831        256
  78.5030        267
  78.5229        270
  78.5427        263
  78.5626        288
  78.5825        284
  78.6024        268
  78.6223        250
  78.6422        229
  78.6620        248
  78.6819        255
  78.7018        266
  78.7217        270
  78.7416        284
  78.7615        258
  78.7814        251
  78.8012        257
  78.8211        230
  78.8410        242
  78.8609        244
  78.8808        276
  78.9007        268
  78.9205        262
  78.9404        231
  78.9603        286
  78.9802        264
  79.0001        236
  79.0200        230
  79.0399        230
  79.0597        247
  79.0796        272
  79.0995        239
  79.1194        259
  79.1393        278
  79.1592        265
  79.1791        273
  79.1989        261
  79.2188        267
  79.2387        243
  79.2586        253
  79.2785        251
  79.2984        232
  79.3182        265
  79.3381        236
  79.3580        230
  79.3779        282
  79.3978        230
  79.4177        300
  79.4376        258
  79.4574        285
  79.4773        235
  79.4972        255
  79.5171        261
  79.5370        259
  79.5569        234
  79.5767        249
  79.5966        242
  79.6165        262
  79.6364        221
  79.6563        236
  79.6762        239
  79.6961        231
  79.7159        230
  79.7358        232
  79.7557        238
  79.7756        249
  79.7955        257
  79.8154        255
  79.8353        257
  79.8551        284
  79.8750        241
  79.8949        225
  79.9148        229
  79.9347        250
  79.9546        240
  79.9744        254
  79.9943        258
