; (content of file E:\SAIF User Data\2019\Adrine Correya RS,ISP,CUSAT\190711G\SAIFXR190711G-02(B).raw)
_FILEVERSION = 2
_SAMPLE = B
_+SAMPLE = 
_SITE = "Cochin Uni"
_USER = "Cochin Uni"
_GONIOMETER_CODE = 20
; Goniometer : D8 theta/2theta, stage : Unknown
_SAMPLE_CHANGER_CODE = 0
_ATTACHMENTS_CODE = 0
_GONIOMETER_RADIUS = 217.5
_FIXED_DIVSLIT = 0.15
_FIXED_SAMPLESLIT = 1
_SOLLER_SLITS = 2
_FIXED_DETSLIT = 1
_MONOCHROMATOR = 0
; Incident beam monochromator : None
_THIN_FILM = N
_BETA_FILTER = N
_FIXED_ANTISLIT = 0.15
_ANALYZER_CODE = 0
; Received beam analyzer : None
_DATEMEASURED = "15-Jul-2019 15:21:48"
_WL_UNIT = A
_WL1 = 1.5406
_WL2 = 1.54439
_WL3 = 1.39222
_WLRATIO = 0.5
_ANODE = Cu

; Data for range 1
_DRIVE = COUPLED
_STEPTIME = 59.67
_STEPSIZE = 0.0198849
_STEPMODE = C
_START = 3
_THETA = 1.5
_2THETA = 3
_KHI = 0
_PHI = 0
_X = 0
_Y = 0
_Z = 0
_DETECTOR = 5
; Detector type : Unknown
_DETECTORSLIT = out
_AUX1 = 0
_AUX2 = 0
_AUX3 = 0
_TIMESTARTED = 11
_TEMP_RATE = -1
_TEMP_DELAY = -1
_KV = 40
_MA = 40
_RANGE_WL = 1.5406
_3DPLANE = 0
_V4_COUNTERS_MASK = 4096
_V4_DRIVES_MASK = 0
_V4_ENCODERS_MASK = 0
_2THETACOUNTS = 1
; 2THETA  PSD
   3.0000       2307
   3.0199       2313
   3.0398       2261
   3.0597       2227
   3.0795       2229
   3.0994       2255
   3.1193       2182
   3.1392       2163
   3.1591       2136
   3.1790       2115
   3.1988       2110
   3.2187       2048
   3.2386       2109
   3.2585       2008
   3.2784       1949
   3.2983       2007
   3.3182       1956
   3.3380       1912
   3.3579       1950
   3.3778       1849
   3.3977       1930
   3.4176       1852
   3.4375       1769
   3.4574       1883
   3.4772       1791
   3.4971       1771
   3.5170       1777
   3.5369       1847
   3.5568       1824
   3.5767       1748
   3.5965       1782
   3.6164       1790
   3.6363       1757
   3.6562       1741
   3.6761       1683
   3.6960       1676
   3.7159       1691
   3.7357       1656
   3.7556       1713
   3.7755       1640
   3.7954       1635
   3.8153       1615
   3.8352       1676
   3.8551       1684
   3.8749       1670
   3.8948       1634
   3.9147       1669
   3.9346       1666
   3.9545       1586
   3.9744       1558
   3.9942       1686
   4.0141       1583
   4.0340       1546
   4.0539       1608
   4.0738       1552
   4.0937       1659
   4.1136       1632
   4.1334       1531
   4.1533       1531
   4.1732       1609
   4.1931       1522
   4.2130       1535
   4.2329       1513
   4.2527       1555
   4.2726       1622
   4.2925       1515
   4.3124       1568
   4.3323       1489
   4.3522       1512
   4.3721       1512
   4.3919       1528
   4.4118       1447
   4.4317       1463
   4.4516       1521
   4.4715       1450
   4.4914       1496
   4.5113       1477
   4.5311       1488
   4.5510       1566
   4.5709       1459
   4.5908       1420
   4.6107       1520
   4.6306       1471
   4.6504       1393
   4.6703       1457
   4.6902       1435
   4.7101       1455
   4.7300       1467
   4.7499       1411
   4.7698       1475
   4.7896       1464
   4.8095       1488
   4.8294       1406
   4.8493       1379
   4.8692       1438
   4.8891       1456
   4.9090       1468
   4.9288       1422
   4.9487       1371
   4.9686       1389
   4.9885       1370
   5.0084       1455
   5.0283       1356
   5.0481       1366
   5.0680       1411
   5.0879       1369
   5.1078       1502
   5.1277       1415
   5.1476       1403
   5.1675       1380
   5.1873       1331
   5.2072       1415
   5.2271       1369
   5.2470       1353
   5.2669       1366
   5.2868       1331
   5.3066       1347
   5.3265       1332
   5.3464       1320
   5.3663       1290
   5.3862       1322
   5.4061       1357
   5.4260       1287
   5.4458       1301
   5.4657       1328
   5.4856       1253
   5.5055       1277
   5.5254       1279
   5.5453       1290
   5.5652       1276
   5.5850       1257
   5.6049       1268
   5.6248       1258
   5.6447       1213
   5.6646       1246
   5.6845       1267
   5.7043       1241
   5.7242       1202
   5.7441       1266
   5.7640       1271
   5.7839       1252
   5.8038       1251
   5.8237       1189
   5.8435       1265
   5.8634       1222
   5.8833       1230
   5.9032       1264
   5.9231       1220
   5.9430       1194
   5.9629       1204
   5.9827       1207
   6.0026       1155
   6.0225       1191
   6.0424       1185
   6.0623       1189
   6.0822       1205
   6.1020       1220
   6.1219       1141
   6.1418       1184
   6.1617       1156
   6.1816       1201
   6.2015       1135
   6.2214       1155
   6.2412       1099
   6.2611       1136
   6.2810       1142
   6.3009       1120
   6.3208       1143
   6.3407       1228
   6.3605       1177
   6.3804       1146
   6.4003       1093
   6.4202       1134
   6.4401       1165
   6.4600       1143
   6.4799       1143
   6.4997       1109
   6.5196       1134
   6.5395       1081
   6.5594       1114
   6.5793       1098
   6.5992       1110
   6.6191       1135
   6.6389       1146
   6.6588       1104
   6.6787       1081
   6.6986       1069
   6.7185       1081
   6.7384       1078
   6.7582        990
   6.7781       1053
   6.7980       1073
   6.8179       1088
   6.8378       1062
   6.8577       1075
   6.8776       1087
   6.8974       1070
   6.9173       1031
   6.9372       1034
   6.9571       1032
   6.9770       1079
   6.9969       1085
   7.0167       1057
   7.0366       1009
   7.0565       1073
   7.0764       1015
   7.0963       1024
   7.1162       1046
   7.1361       1051
   7.1559       1013
   7.1758       1067
   7.1957       1046
   7.2156       1037
   7.2355       1006
   7.2554       1046
   7.2753       1052
   7.2951       1012
   7.3150        988
   7.3349       1059
   7.3548        969
   7.3747        998
   7.3946        983
   7.4144        991
   7.4343        996
   7.4542       1018
   7.4741        965
   7.4940       1034
   7.5139       1034
   7.5338       1011
   7.5536        984
   7.5735        969
   7.5934        999
   7.6133        981
   7.6332        991
   7.6531        981
   7.6730       1000
   7.6928       1000
   7.7127        966
   7.7326        996
   7.7525        987
   7.7724        936
   7.7923        980
   7.8121        990
   7.8320        930
   7.8519        942
   7.8718        877
   7.8917        935
   7.9116        940
   7.9315        961
   7.9513        887
   7.9712        918
   7.9911        960
   8.0110       1016
   8.0309        910
   8.0508        895
   8.0706       1028
   8.0905        890
   8.1104        934
   8.1303        880
   8.1502        921
   8.1701        889
   8.1900        958
   8.2098        917
   8.2297        858
   8.2496        859
   8.2695        934
   8.2894        909
   8.3093        893
   8.3292        924
   8.3490        913
   8.3689        951
   8.3888        918
   8.4087        877
   8.4286        894
   8.4485        927
   8.4683        842
   8.4882        900
   8.5081        906
   8.5280        880
   8.5479        906
   8.5678        872
   8.5877        888
   8.6075        850
   8.6274        851
   8.6473        857
   8.6672        830
   8.6871        902
   8.7070        905
   8.7269        862
   8.7467        879
   8.7666        868
   8.7865        889
   8.8064        874
   8.8263        836
   8.8462        838
   8.8660        842
   8.8859        818
   8.9058        840
   8.9257        815
   8.9456        845
   8.9655        855
   8.9854        872
   9.0052        814
   9.0251        843
   9.0450        781
   9.0649        810
   9.0848        888
   9.1047        822
   9.1245        822
   9.1444        834
   9.1643        814
   9.1842        835
   9.2041        813
   9.2240        804
   9.2439        794
   9.2637        829
   9.2836        806
   9.3035        829
   9.3234        788
   9.3433        721
   9.3632        831
   9.3831        829
   9.4029        770
   9.4228        836
   9.4427        871
   9.4626        801
   9.4825        770
   9.5024        768
   9.5222        819
   9.5421        762
   9.5620        804
   9.5819        807
   9.6018        814
   9.6217        782
   9.6416        820
   9.6614        792
   9.6813        778
   9.7012        819
   9.7211        776
   9.7410        745
   9.7609        781
   9.7808        818
   9.8006        775
   9.8205        803
   9.8404        798
   9.8603        759
   9.8802        824
   9.9001        798
   9.9199        744
   9.9398        756
   9.9597        812
   9.9796        766
   9.9995        811
  10.0194        815
  10.0393        789
  10.0591        752
  10.0790        746
  10.0989        793
  10.1188        756
  10.1387        763
  10.1586        842
  10.1784        709
  10.1983        801
  10.2182        813
  10.2381        764
  10.2580        786
  10.2779        769
  10.2978        684
  10.3176        724
  10.3375        738
  10.3574        846
  10.3773        783
  10.3972        790
  10.4171        755
  10.4370        848
  10.4568        828
  10.4767        782
  10.4966        805
  10.5165        824
  10.5364        838
  10.5563        950
  10.5761       1000
  10.5960       1025
  10.6159       1120
  10.6358       1079
  10.6557       1025
  10.6756        970
  10.6955        947
  10.7153        819
  10.7352        866
  10.7551        825
  10.7750        794
  10.7949        792
  10.8148        785
  10.8347        788
  10.8545        769
  10.8744        785
  10.8943        784
  10.9142        770
  10.9341        734
  10.9540        720
  10.9738        776
  10.9937        766
  11.0136        745
  11.0335        757
  11.0534        768
  11.0733        790
  11.0932        747
  11.1130        778
  11.1329        767
  11.1528        714
  11.1727        749
  11.1926        739
  11.2125        762
  11.2323        774
  11.2522        750
  11.2721        732
  11.2920        716
  11.3119        779
  11.3318        784
  11.3517        743
  11.3715        759
  11.3914        736
  11.4113        699
  11.4312        757
  11.4511        739
  11.4710        715
  11.4909        746
  11.5107        729
  11.5306        755
  11.5505        798
  11.5704        776
  11.5903        748
  11.6102        779
  11.6300        757
  11.6499        812
  11.6698        797
  11.6897        804
  11.7096        807
  11.7295        749
  11.7494        794
  11.7692        744
  11.7891        784
  11.8090        761
  11.8289        768
  11.8488        780
  11.8687        750
  11.8886        762
  11.9084        766
  11.9283        780
  11.9482        768
  11.9681        810
  11.9880        818
  12.0079        761
  12.0277        772
  12.0476        773
  12.0675        768
  12.0874        758
  12.1073        770
  12.1272        817
  12.1471        791
  12.1669        760
  12.1868        781
  12.2067        781
  12.2266        798
  12.2465        795
  12.2664        823
  12.2862        816
  12.3061        794
  12.3260        795
  12.3459        819
  12.3658        776
  12.3857        820
  12.4056        795
  12.4254        824
  12.4453        814
  12.4652        846
  12.4851        853
  12.5050        891
  12.5249        842
  12.5448        856
  12.5646        894
  12.5845        834
  12.6044        838
  12.6243        853
  12.6442        851
  12.6641        857
  12.6839        861
  12.7038        853
  12.7237        880
  12.7436        833
  12.7635        861
  12.7834        879
  12.8033        862
  12.8231        847
  12.8430        818
  12.8629        817
  12.8828        789
  12.9027        783
  12.9226        795
  12.9425        808
  12.9623        778
  12.9822        779
  13.0021        798
  13.0220        755
  13.0419        749
  13.0618        719
  13.0816        673
  13.1015        747
  13.1214        721
  13.1413        724
  13.1612        705
  13.1811        709
  13.2010        691
  13.2208        680
  13.2407        658
  13.2606        710
  13.2805        700
  13.3004        657
  13.3203        664
  13.3401        699
  13.3600        648
  13.3799        627
  13.3998        647
  13.4197        677
  13.4396        657
  13.4595        644
  13.4793        644
  13.4992        664
  13.5191        587
  13.5390        680
  13.5589        632
  13.5788        655
  13.5987        644
  13.6185        608
  13.6384        656
  13.6583        613
  13.6782        615
  13.6981        644
  13.7180        622
  13.7378        625
  13.7577        615
  13.7776        628
  13.7975        611
  13.8174        636
  13.8373        586
  13.8572        586
  13.8770        613
  13.8969        640
  13.9168        641
  13.9367        638
  13.9566        623
  13.9765        649
  13.9963        600
  14.0162        624
  14.0361        573
  14.0560        637
  14.0759        586
  14.0958        570
  14.1157        623
  14.1355        623
  14.1554        639
  14.1753        596
  14.1952        581
  14.2151        546
  14.2350        557
  14.2549        589
  14.2747        601
  14.2946        577
  14.3145        580
  14.3344        617
  14.3543        627
  14.3742        643
  14.3940        621
  14.4139        641
  14.4338        567
  14.4537        626
  14.4736        672
  14.4935        617
  14.5134        580
  14.5332        610
  14.5531        637
  14.5730        689
  14.5929        611
  14.6128        686
  14.6327        687
  14.6526        696
  14.6724        712
  14.6923        654
  14.7122        667
  14.7321        655
  14.7520        601
  14.7719        661
  14.7917        606
  14.8116        587
  14.8315        600
  14.8514        587
  14.8713        565
  14.8912        497
  14.9111        563
  14.9309        605
  14.9508        581
  14.9707        586
  14.9906        567
  15.0105        547
  15.0304        578
  15.0502        568
  15.0701        599
  15.0900        560
  15.1099        572
  15.1298        577
  15.1497        578
  15.1696        583
  15.1894        561
  15.2093        623
  15.2292        571
  15.2491        539
  15.2690        515
  15.2889        593
  15.3088        513
  15.3286        532
  15.3485        556
  15.3684        591
  15.3883        578
  15.4082        542
  15.4281        505
  15.4479        581
  15.4678        547
  15.4877        558
  15.5076        550
  15.5275        532
  15.5474        573
  15.5673        580
  15.5871        499
  15.6070        548
  15.6269        572
  15.6468        504
  15.6667        563
  15.6866        551
  15.7065        541
  15.7263        557
  15.7462        569
  15.7661        542
  15.7860        582
  15.8059        569
  15.8258        571
  15.8456        613
  15.8655        603
  15.8854        642
  15.9053        568
  15.9252        652
  15.9451        740
  15.9650        857
  15.9848       1038
  16.0047       1187
  16.0246       1473
  16.0445       1513
  16.0644       1497
  16.0843       1260
  16.1041       1022
  16.1240        837
  16.1439        718
  16.1638        668
  16.1837        664
  16.2036        598
  16.2235        601
  16.2433        564
  16.2632        558
  16.2831        607
  16.3030        594
  16.3229        520
  16.3428        537
  16.3627        584
  16.3825        589
  16.4024        524
  16.4223        536
  16.4422        530
  16.4621        534
  16.4820        529
  16.5018        521
  16.5217        521
  16.5416        525
  16.5615        515
  16.5814        540
  16.6013        534
  16.6212        542
  16.6410        538
  16.6609        547
  16.6808        564
  16.7007        503
  16.7206        475
  16.7405        530
  16.7604        538
  16.7802        547
  16.8001        529
  16.8200        529
  16.8399        493
  16.8598        506
  16.8797        477
  16.8995        508
  16.9194        503
  16.9393        521
  16.9592        471
  16.9791        541
  16.9990        483
  17.0189        490
  17.0387        474
  17.0586        464
  17.0785        496
  17.0984        487
  17.1183        516
  17.1382        505
  17.1580        492
  17.1779        488
  17.1978        486
  17.2177        524
  17.2376        522
  17.2575        488
  17.2774        502
  17.2972        516
  17.3171        519
  17.3370        479
  17.3569        523
  17.3768        501
  17.3967        510
  17.4166        429
  17.4364        498
  17.4563        485
  17.4762        470
  17.4961        471
  17.5160        505
  17.5359        460
  17.5557        462
  17.5756        505
  17.5955        476
  17.6154        470
  17.6353        482
  17.6552        484
  17.6751        488
  17.6949        461
  17.7148        430
  17.7347        487
  17.7546        497
  17.7745        456
  17.7944        466
  17.8143        466
  17.8341        465
  17.8540        464
  17.8739        482
  17.8938        471
  17.9137        475
  17.9336        450
  17.9534        450
  17.9733        432
  17.9932        431
  18.0131        499
  18.0330        478
  18.0529        435
  18.0728        447
  18.0926        455
  18.1125        481
  18.1324        435
  18.1523        446
  18.1722        483
  18.1921        482
  18.2119        471
  18.2318        428
  18.2517        444
  18.2716        434
  18.2915        469
  18.3114        500
  18.3313        463
  18.3511        493
  18.3710        454
  18.3909        454
  18.4108        449
  18.4307        423
  18.4506        465
  18.4705        481
  18.4903        446
  18.5102        445
  18.5301        471
  18.5500        418
  18.5699        457
  18.5898        474
  18.6096        433
  18.6295        474
  18.6494        476
  18.6693        452
  18.6892        451
  18.7091        432
  18.7290        471
  18.7488        448
  18.7687        420
  18.7886        457
  18.8085        444
  18.8284        470
  18.8483        472
  18.8682        446
  18.8880        434
  18.9079        443
  18.9278        448
  18.9477        461
  18.9676        427
  18.9875        425
  19.0073        465
  19.0272        434
  19.0471        436
  19.0670        435
  19.0869        431
  19.1068        425
  19.1267        429
  19.1465        461
  19.1664        437
  19.1863        452
  19.2062        489
  19.2261        459
  19.2460        460
  19.2658        459
  19.2857        468
  19.3056        396
  19.3255        472
  19.3454        412
  19.3653        405
  19.3852        433
  19.4050        460
  19.4249        474
  19.4448        468
  19.4647        480
  19.4846        486
  19.5045        488
  19.5244        479
  19.5442        503
  19.5641        473
  19.5840        470
  19.6039        452
  19.6238        428
  19.6437        407
  19.6635        463
  19.6834        433
  19.7033        434
  19.7232        407
  19.7431        433
  19.7630        433
  19.7829        436
  19.8027        443
  19.8226        436
  19.8425        448
  19.8624        448
  19.8823        411
  19.9022        400
  19.9220        420
  19.9419        419
  19.9618        409
  19.9817        394
  20.0016        458
  20.0215        443
  20.0414        451
  20.0612        428
  20.0811        382
  20.1010        428
  20.1209        435
  20.1408        405
  20.1607        377
  20.1806        426
  20.2004        432
  20.2203        456
  20.2402        434
  20.2601        410
  20.2800        429
  20.2999        442
  20.3197        417
  20.3396        399
  20.3595        455
  20.3794        392
  20.3993        398
  20.4192        405
  20.4391        397
  20.4589        402
  20.4788        392
  20.4987        428
  20.5186        399
  20.5385        384
  20.5584        398
  20.5783        426
  20.5981        440
  20.6180        398
  20.6379        391
  20.6578        415
  20.6777        439
  20.6976        406
  20.7174        396
  20.7373        401
  20.7572        419
  20.7771        424
  20.7970        420
  20.8169        398
  20.8368        407
  20.8566        438
  20.8765        465
  20.8964        448
  20.9163        421
  20.9362        440
  20.9561        456
  20.9759        432
  20.9958        408
  21.0157        429
  21.0356        443
  21.0555        408
  21.0754        423
  21.0953        403
  21.1151        434
  21.1350        421
  21.1549        422
  21.1748        391
  21.1947        410
  21.2146        392
  21.2345        395
  21.2543        435
  21.2742        444
  21.2941        452
  21.3140        457
  21.3339        453
  21.3538        496
  21.3736        442
  21.3935        542
  21.4134        550
  21.4333        636
  21.4532        740
  21.4731        842
  21.4930        898
  21.5128        936
  21.5327        894
  21.5526        767
  21.5725        673
  21.5924        557
  21.6123        586
  21.6322        489
  21.6520        490
  21.6719        443
  21.6918        412
  21.7117        405
  21.7316        416
  21.7515        421
  21.7713        430
  21.7912        414
  21.8111        424
  21.8310        381
  21.8509        406
  21.8708        400
  21.8907        378
  21.9105        376
  21.9304        374
  21.9503        404
  21.9702        392
  21.9901        407
  22.0100        440
  22.0298        385
  22.0497        436
  22.0696        424
  22.0895        415
  22.1094        399
  22.1293        410
  22.1492        392
  22.1690        385
  22.1889        426
  22.2088        403
  22.2287        422
  22.2486        406
  22.2685        400
  22.2884        450
  22.3082        460
  22.3281        413
  22.3480        429
  22.3679        392
  22.3878        439
  22.4077        387
  22.4275        423
  22.4474        458
  22.4673        399
  22.4872        409
  22.5071        401
  22.5270        418
  22.5469        411
  22.5667        420
  22.5866        404
  22.6065        396
  22.6264        403
  22.6463        441
  22.6662        427
  22.6861        405
  22.7059        411
  22.7258        401
  22.7457        457
  22.7656        418
  22.7855        403
  22.8054        409
  22.8252        458
  22.8451        461
  22.8650        472
  22.8849        478
  22.9048        509
  22.9247        500
  22.9446        541
  22.9644        560
  22.9843        556
  23.0042        539
  23.0241        682
  23.0440        643
  23.0639        749
  23.0837        872
  23.1036       1189
  23.1235       1549
  23.1434       1881
  23.1633       2049
  23.1832       1954
  23.2031       1667
  23.2229       1420
  23.2428       1112
  23.2627        877
  23.2826        720
  23.3025        682
  23.3224        618
  23.3423        614
  23.3621        654
  23.3820        605
  23.4019        595
  23.4218        635
  23.4417        625
  23.4616        665
  23.4814        675
  23.5013        695
  23.5212        649
  23.5411        706
  23.5610        729
  23.5809        815
  23.6008        778
  23.6206        869
  23.6405        942
  23.6604        891
  23.6803        977
  23.7002       1034
  23.7201        962
  23.7400       1053
  23.7598       1007
  23.7797        928
  23.7996        930
  23.8195        933
  23.8394        842
  23.8593        802
  23.8791        771
  23.8990        735
  23.9189        659
  23.9388        643
  23.9587        661
  23.9786        638
  23.9985        607
  24.0183        559
  24.0382        529
  24.0581        566
  24.0780        515
  24.0979        531
  24.1178        502
  24.1376        567
  24.1575        494
  24.1774        470
  24.1973        482
  24.2172        461
  24.2371        481
  24.2570        485
  24.2768        532
  24.2967        468
  24.3166        541
  24.3365        531
  24.3564        515
  24.3763        569
  24.3962        613
  24.4160        602
  24.4359        599
  24.4558        554
  24.4757        538
  24.4956        535
  24.5155        470
  24.5353        449
  24.5552        471
  24.5751        431
  24.5950        453
  24.6149        419
  24.6348        424
  24.6547        433
  24.6745        478
  24.6944        478
  24.7143        422
  24.7342        470
  24.7541        438
  24.7740        443
  24.7939        449
  24.8137        407
  24.8336        411
  24.8535        422
  24.8734        400
  24.8933        445
  24.9132        432
  24.9330        414
  24.9529        451
  24.9728        426
  24.9927        408
  25.0126        460
  25.0325        403
  25.0524        429
  25.0722        443
  25.0921        418
  25.1120        448
  25.1319        445
  25.1518        427
  25.1717        458
  25.1915        459
  25.2114        446
  25.2313        447
  25.2512        449
  25.2711        443
  25.2910        440
  25.3109        454
  25.3307        431
  25.3506        460
  25.3705        442
  25.3904        485
  25.4103        441
  25.4302        428
  25.4501        468
  25.4699        511
  25.4898        488
  25.5097        537
  25.5296        559
  25.5495        551
  25.5694        627
  25.5892        684
  25.6091        641
  25.6290        653
  25.6489        618
  25.6688        529
  25.6887        550
  25.7086        534
  25.7284        488
  25.7483        495
  25.7682        536
  25.7881        483
  25.8080        482
  25.8279        480
  25.8478        525
  25.8676        507
  25.8875        493
  25.9074        458
  25.9273        444
  25.9472        479
  25.9671        501
  25.9869        468
  26.0068        477
  26.0267        504
  26.0466        492
  26.0665        468
  26.0864        479
  26.1063        430
  26.1261        451
  26.1460        431
  26.1659        485
  26.1858        414
  26.2057        448
  26.2256        487
  26.2454        485
  26.2653        484
  26.2852        501
  26.3051        472
  26.3250        479
  26.3449        462
  26.3648        424
  26.3846        468
  26.4045        466
  26.4244        527
  26.4443        449
  26.4642        503
  26.4841        474
  26.5040        450
  26.5238        455
  26.5437        480
  26.5636        476
  26.5835        509
  26.6034        492
  26.6233        536
  26.6431        513
  26.6630        648
  26.6829        713
  26.7028        841
  26.7227        907
  26.7426        980
  26.7625        904
  26.7823        890
  26.8022        776
  26.8221        745
  26.8420        669
  26.8619        602
  26.8818        598
  26.9016        536
  26.9215        576
  26.9414        643
  26.9613        610
  26.9812        686
  27.0011        659
  27.0210        749
  27.0408        632
  27.0607        671
  27.0806        635
  27.1005        682
  27.1204        658
  27.1403        745
  27.1602        828
  27.1800        918
  27.1999       1136
  27.2198       1216
  27.2397       1253
  27.2596       1226
  27.2795       1163
  27.2993       1052
  27.3192        918
  27.3391        844
  27.3590        763
  27.3789        712
  27.3988        720
  27.4187        645
  27.4385        727
  27.4584        687
  27.4783        716
  27.4982        742
  27.5181        694
  27.5380        724
  27.5579        688
  27.5777        737
  27.5976        741
  27.6175        761
  27.6374        801
  27.6573        891
  27.6772        904
  27.6970       1073
  27.7169       1204
  27.7368       1389
  27.7567       1646
  27.7766       1821
  27.7965       2088
  27.8164       2093
  27.8362       2006
  27.8561       1898
  27.8760       1691
  27.8959       1472
  27.9158       1317
  27.9357       1142
  27.9555        965
  27.9754        930
  27.9953        749
  28.0152        751
  28.0351        679
  28.0550        648
  28.0749        663
  28.0947        645
  28.1146        648
  28.1345        614
  28.1544        623
  28.1743        596
  28.1942        600
  28.2141        560
  28.2339        590
  28.2538        634
  28.2737        610
  28.2936        641
  28.3135        592
  28.3334        697
  28.3532        626
  28.3731        651
  28.3930        634
  28.4129        647
  28.4328        623
  28.4527        677
  28.4726        629
  28.4924        639
  28.5123        687
  28.5322        575
  28.5521        588
  28.5720        603
  28.5919        576
  28.6118        572
  28.6316        577
  28.6515        522
  28.6714        530
  28.6913        566
  28.7112        575
  28.7311        599
  28.7509        581
  28.7708        561
  28.7907        569
  28.8106        588
  28.8305        536
  28.8504        591
  28.8703        590
  28.8901        595
  28.9100        630
  28.9299        568
  28.9498        578
  28.9697        604
  28.9896        581
  29.0094        662
  29.0293        596
  29.0492        636
  29.0691        626
  29.0890        636
  29.1089        642
  29.1288        650
  29.1486        681
  29.1685        715
  29.1884        638
  29.2083        712
  29.2282        738
  29.2481        703
  29.2680        714
  29.2878        724
  29.3077        754
  29.3276        748
  29.3475        746
  29.3674        818
  29.3873        860
  29.4071        846
  29.4270        860
  29.4469        878
  29.4668        940
  29.4867        925
  29.5066       1017
  29.5265        956
  29.5463       1053
  29.5662       1105
  29.5861       1155
  29.6060       1118
  29.6259       1307
  29.6458       1426
  29.6657       1537
  29.6855       1661
  29.7054       1750
  29.7253       1824
  29.7452       1974
  29.7651       2133
  29.7850       2339
  29.8048       2699
  29.8247       3159
  29.8446       3979
  29.8645       5241
  29.8844       6460
  29.9043       7040
  29.9242       6649
  29.9440       5985
  29.9639       5394
  29.9838       5055
  30.0037       4294
  30.0236       3428
  30.0435       2836
  30.0633       2442
  30.0832       2270
  30.1031       2156
  30.1230       2043
  30.1429       1805
  30.1628       1706
  30.1827       1697
  30.2025       1523
  30.2224       1430
  30.2423       1313
  30.2622       1320
  30.2821       1287
  30.3020       1116
  30.3219       1138
  30.3417       1045
  30.3616       1024
  30.3815        965
  30.4014        896
  30.4213        918
  30.4412        870
  30.4610        847
  30.4809        813
  30.5008        729
  30.5207        811
  30.5406        736
  30.5605        723
  30.5804        711
  30.6002        659
  30.6201        643
  30.6400        625
  30.6599        619
  30.6798        592
  30.6997        573
  30.7196        584
  30.7394        579
  30.7593        569
  30.7792        512
  30.7991        519
  30.8190        526
  30.8389        519
  30.8587        509
  30.8786        542
  30.8985        480
  30.9184        502
  30.9383        503
  30.9582        514
  30.9781        499
  30.9979        469
  31.0178        461
  31.0377        427
  31.0576        447
  31.0775        441
  31.0974        422
  31.1172        468
  31.1371        437
  31.1570        480
  31.1769        437
  31.1968        476
  31.2167        464
  31.2366        475
  31.2564        462
  31.2763        474
  31.2962        439
  31.3161        443
  31.3360        459
  31.3559        456
  31.3758        441
  31.3956        457
  31.4155        445
  31.4354        499
  31.4553        482
  31.4752        559
  31.4951        516
  31.5149        555
  31.5348        629
  31.5547        599
  31.5746        615
  31.5945        546
  31.6144        554
  31.6343        530
  31.6541        590
  31.6740        519
  31.6939        498
  31.7138        496
  31.7337        481
  31.7536        461
  31.7735        435
  31.7933        446
  31.8132        449
  31.8331        454
  31.8530        444
  31.8729        470
  31.8928        470
  31.9126        495
  31.9325        487
  31.9524        434
  31.9723        483
  31.9922        482
  32.0121        454
  32.0320        479
  32.0518        497
  32.0717        483
  32.0916        543
  32.1115        560
  32.1314        552
  32.1513        557
  32.1711        607
  32.1910        582
  32.2109        587
  32.2308        632
  32.2507        669
  32.2706        643
  32.2905        720
  32.3103        804
  32.3302        812
  32.3501        869
  32.3700        914
  32.3899       1035
  32.4098       1075
  32.4297       1112
  32.4495       1203
  32.4694       1288
  32.4893       1443
  32.5092       1480
  32.5291       1651
  32.5490       1695
  32.5688       1741
  32.5887       1748
  32.6086       1663
  32.6285       1780
  32.6484       1936
  32.6683       2166
  32.6882       2158
  32.7080       1976
  32.7279       1877
  32.7478       1844
  32.7677       1646
  32.7876       1557
  32.8075       1388
  32.8273       1277
  32.8472       1285
  32.8671       1429
  32.8870       1475
  32.9069       1760
  32.9268       1780
  32.9467       1560
  32.9665       1432
  32.9864       1334
  33.0063       1260
  33.0262       1176
  33.0461        995
  33.0660        930
  33.0859        830
  33.1057        805
  33.1256        642
  33.1455        669
  33.1654        595
  33.1853        567
  33.2052        532
  33.2250        493
  33.2449        497
  33.2648        464
  33.2847        469
  33.3046        428
  33.3245        463
  33.3444        376
  33.3642        397
  33.3841        394
  33.4040        412
  33.4239        417
  33.4438        352
  33.4637        347
  33.4836        357
  33.5034        372
  33.5233        360
  33.5432        380
  33.5631        365
  33.5830        372
  33.6029        354
  33.6227        354
  33.6426        357
  33.6625        392
  33.6824        379
  33.7023        392
  33.7222        363
  33.7421        410
  33.7619        391
  33.7818        389
  33.8017        385
  33.8216        388
  33.8415        371
  33.8614        391
  33.8812        395
  33.9011        356
  33.9210        372
  33.9409        395
  33.9608        359
  33.9807        361
  34.0006        304
  34.0204        345
  34.0403        344
  34.0602        319
  34.0801        323
  34.1000        358
  34.1199        343
  34.1398        313
  34.1596        339
  34.1795        327
  34.1994        385
  34.2193        363
  34.2392        367
  34.2591        372
  34.2789        346
  34.2988        346
  34.3187        339
  34.3386        382
  34.3585        390
  34.3784        325
  34.3983        368
  34.4181        390
  34.4380        387
  34.4579        392
  34.4778        439
  34.4977        464
  34.5176        445
  34.5375        449
  34.5573        375
  34.5772        397
  34.5971        370
  34.6170        403
  34.6369        382
  34.6568        395
  34.6766        359
  34.6965        359
  34.7164        405
  34.7363        375
  34.7562        364
  34.7761        424
  34.7960        400
  34.8158        413
  34.8357        440
  34.8556        417
  34.8755        413
  34.8954        423
  34.9153        432
  34.9351        389
  34.9550        447
  34.9749        389
  34.9948        421
  35.0147        371
  35.0346        363
  35.0545        384
  35.0743        380
  35.0942        377
  35.1141        376
  35.1340        393
  35.1539        386
  35.1738        384
  35.1937        410
  35.2135        396
  35.2334        424
  35.2533        403
  35.2732        364
  35.2931        353
  35.3130        380
  35.3328        380
  35.3527        336
  35.3726        333
  35.3925        318
  35.4124        333
  35.4323        316
  35.4522        324
  35.4720        307
  35.4919        328
  35.5118        325
  35.5317        347
  35.5516        308
  35.5715        319
  35.5914        296
  35.6112        310
  35.6311        287
  35.6510        310
  35.6709        318
  35.6908        349
  35.7107        330
  35.7305        337
  35.7504        325
  35.7703        325
  35.7902        298
  35.8101        311
  35.8300        327
  35.8499        332
  35.8697        301
  35.8896        314
  35.9095        315
  35.9294        275
  35.9493        280
  35.9692        332
  35.9890        315
  36.0089        307
  36.0288        317
  36.0487        295
  36.0686        269
  36.0885        286
  36.1084        270
  36.1282        293
  36.1481        311
  36.1680        291
  36.1879        282
  36.2078        297
  36.2277        264
  36.2476        291
  36.2674        304
  36.2873        277
  36.3072        279
  36.3271        236
  36.3470        300
  36.3669        248
  36.3867        261
  36.4066        295
  36.4265        305
  36.4464        258
  36.4663        263
  36.4862        292
  36.5061        308
  36.5259        312
  36.5458        320
  36.5657        305
  36.5856        343
  36.6055        338
  36.6254        396
  36.6453        427
  36.6651        450
  36.6850        422
  36.7049        412
  36.7248        434
  36.7447        415
  36.7646        420
  36.7844        396
  36.8043        385
  36.8242        431
  36.8441        426
  36.8640        465
  36.8839        472
  36.9038        424
  36.9236        395
  36.9435        417
  36.9634        386
  36.9833        369
  37.0032        391
  37.0231        361
  37.0429        317
  37.0628        293
  37.0827        326
  37.1026        306
  37.1225        295
  37.1424        280
  37.1623        284
  37.1821        315
  37.2020        278
  37.2219        266
  37.2418        327
  37.2617        287
  37.2816        285
  37.3015        266
  37.3213        329
  37.3412        310
  37.3611        303
  37.3810        376
  37.4009        375
  37.4208        359
  37.4406        332
  37.4605        346
  37.4804        369
  37.5003        326
  37.5202        342
  37.5401        355
  37.5600        315
  37.5798        325
  37.5997        296
  37.6196        325
  37.6395        325
  37.6594        327
  37.6793        336
  37.6992        316
  37.7190        319
  37.7389        338
  37.7588        336
  37.7787        369
  37.7986        349
  37.8185        339
  37.8383        345
  37.8582        318
  37.8781        361
  37.8980        335
  37.9179        373
  37.9378        378
  37.9577        361
  37.9775        406
  37.9974        456
  38.0173        425
  38.0372        417
  38.0571        458
  38.0770        454
  38.0968        479
  38.1167        470
  38.1366        573
  38.1565        754
  38.1764        766
  38.1963        860
  38.2162        798
  38.2360        744
  38.2559        716
  38.2758        657
  38.2957        679
  38.3156        566
  38.3355        541
  38.3554        478
  38.3752        415
  38.3951        423
  38.4150        364
  38.4349        365
  38.4548        369
  38.4747        346
  38.4945        318
  38.5144        314
  38.5343        318
  38.5542        351
  38.5741        331
  38.5940        320
  38.6139        309
  38.6337        294
  38.6536        295
  38.6735        320
  38.6934        327
  38.7133        337
  38.7332        311
  38.7531        295
  38.7729        332
  38.7928        323
  38.8127        325
  38.8326        306
  38.8525        306
  38.8724        318
  38.8922        302
  38.9121        338
  38.9320        297
  38.9519        371
  38.9718        330
  38.9917        379
  39.0116        296
  39.0314        336
  39.0513        318
  39.0712        334
  39.0911        329
  39.1110        331
  39.1309        327
  39.1507        322
  39.1706        319
  39.1905        336
  39.2104        365
  39.2303        335
  39.2502        341
  39.2701        336
  39.2899        370
  39.3098        338
  39.3297        383
  39.3496        369
  39.3695        367
  39.3894        403
  39.4093        406
  39.4291        505
  39.4490        549
  39.4689        556
  39.4888        690
  39.5087        752
  39.5286        772
  39.5484        751
  39.5683        651
  39.5882        687
  39.6081        639
  39.6280        661
  39.6479        678
  39.6678        700
  39.6876        712
  39.7075        802
  39.7274        778
  39.7473        707
  39.7672        603
  39.7871        587
  39.8069        606
  39.8268        576
  39.8467        502
  39.8666        459
  39.8865        406
  39.9064        375
  39.9263        359
  39.9461        338
  39.9660        351
  39.9859        343
  40.0058        304
  40.0257        290
  40.0456        294
  40.0655        282
  40.0853        304
  40.1052        294
  40.1251        265
  40.1450        289
  40.1649        290
  40.1848        274
  40.2046        282
  40.2245        305
  40.2444        275
  40.2643        237
  40.2842        286
  40.3041        271
  40.3240        270
  40.3438        269
  40.3637        290
  40.3836        271
  40.4035        310
  40.4234        293
  40.4433        242
  40.4632        260
  40.4830        269
  40.5029        271
  40.5228        293
  40.5427        263
  40.5626        268
  40.5825        295
  40.6023        259
  40.6222        265
  40.6421        263
  40.6620        278
  40.6819        247
  40.7018        240
  40.7217        278
  40.7415        249
  40.7614        263
  40.7813        268
  40.8012        279
  40.8211        281
  40.8410        261
  40.8608        229
  40.8807        272
  40.9006        268
  40.9205        257
  40.9404        284
  40.9603        260
  40.9802        306
  41.0000        274
  41.0199        298
  41.0398        271
  41.0597        305
  41.0796        278
  41.0995        302
  41.1194        340
  41.1392        320
  41.1591        281
  41.1790        287
  41.1989        277
  41.2188        308
  41.2387        290
  41.2585        302
  41.2784        309
  41.2983        345
  41.3182        301
  41.3381        293
  41.3580        293
  41.3779        323
  41.3977        280
  41.4176        319
  41.4375        312
  41.4574        290
  41.4773        321
  41.4972        329
  41.5171        309
  41.5369        337
  41.5568        304
  41.5767        322
  41.5966        332
  41.6165        321
  41.6364        320
  41.6562        330
  41.6761        328
  41.6960        376
  41.7159        367
  41.7358        395
  41.7557        389
  41.7756        377
  41.7954        392
  41.8153        394
  41.8352        424
  41.8551        440
  41.8750        444
  41.8949        423
  41.9147        433
  41.9346        432
  41.9545        411
  41.9744        461
  41.9943        440
  42.0142        436
  42.0341        486
  42.0539        463
  42.0738        446
  42.0937        473
  42.1136        458
  42.1335        426
  42.1534        447
  42.1733        461
  42.1931        403
  42.2130        391
  42.2329        388
  42.2528        392
  42.2727        402
  42.2926        365
  42.3124        385
  42.3323        382
  42.3522        368
  42.3721        358
  42.3920        314
  42.4119        358
  42.4318        325
  42.4516        328
  42.4715        337
  42.4914        320
  42.5113        313
  42.5312        333
  42.5511        321
  42.5710        336
  42.5908        348
  42.6107        381
  42.6306        406
  42.6505        440
  42.6704        393
  42.6903        426
  42.7101        400
  42.7300        332
  42.7499        361
  42.7698        384
  42.7897        353
  42.8096        330
  42.8295        326
  42.8493        311
  42.8692        301
  42.8891        288
  42.9090        281
  42.9289        301
  42.9488        312
  42.9686        289
  42.9885        278
  43.0084        281
  43.0283        264
  43.0482        297
  43.0681        312
  43.0880        278
  43.1078        260
  43.1277        265
  43.1476        278
  43.1675        262
  43.1874        255
  43.2073        249
  43.2272        240
  43.2470        262
  43.2669        289
  43.2868        253
  43.3067        302
  43.3266        256
  43.3465        275
  43.3663        264
  43.3862        267
  43.4061        271
  43.4260        251
  43.4459        244
  43.4658        298
  43.4857        241
  43.5055        255
  43.5254        266
  43.5453        256
  43.5652        255
  43.5851        254
  43.6050        283
  43.6249        271
  43.6447        247
  43.6646        265
  43.6845        247
  43.7044        283
  43.7243        259
  43.7442        240
  43.7640        258
  43.7839        246
  43.8038        252
  43.8237        258
  43.8436        266
  43.8635        270
  43.8834        306
  43.9032        326
  43.9231        338
  43.9430        330
  43.9629        297
  43.9828        312
  44.0027        322
  44.0225        301
  44.0424        342
  44.0623        310
  44.0822        301
  44.1021        290
  44.1220        296
  44.1419        273
  44.1617        254
  44.1816        249
  44.2015        276
  44.2214        273
  44.2413        239
  44.2612        259
  44.2811        289
  44.3009        231
  44.3208        260
  44.3407        250
  44.3606        256
  44.3805        267
  44.4004        270
  44.4202        290
  44.4401        282
  44.4600        256
  44.4799        255
  44.4998        258
  44.5197        240
  44.5396        248
  44.5594        263
  44.5793        233
  44.5992        235
  44.6191        227
  44.6390        277
  44.6589        253
  44.6788        266
  44.6986        271
  44.7185        268
  44.7384        259
  44.7583        266
  44.7782        262
  44.7981        251
  44.8179        286
  44.8378        236
  44.8577        254
  44.8776        292
  44.8975        277
  44.9174        290
  44.9373        290
  44.9571        255
  44.9770        291
  44.9969        275
  45.0168        282
  45.0367        310
  45.0566        304
  45.0764        261
  45.0963        234
  45.1162        263
  45.1361        291
  45.1560        253
  45.1759        275
  45.1958        276
  45.2156        281
  45.2355        284
  45.2554        274
  45.2753        250
  45.2952        299
  45.3151        281
  45.3350        272
  45.3548        284
  45.3747        290
  45.3946        302
  45.4145        298
  45.4344        270
  45.4543        271
  45.4741        280
  45.4940        283
  45.5139        274
  45.5338        297
  45.5537        288
  45.5736        270
  45.5935        249
  45.6133        304
  45.6332        277
  45.6531        277
  45.6730        259
  45.6929        273
  45.7128        296
  45.7327        298
  45.7525        303
  45.7724        298
  45.7923        305
  45.8122        310
  45.8321        348
  45.8520        355
  45.8718        345
  45.8917        358
  45.9116        330
  45.9315        388
  45.9514        422
  45.9713        452
  45.9912        495
  46.0110        525
  46.0309        520
  46.0508        579
  46.0707        545
  46.0906        517
  46.1105        553
  46.1303        518
  46.1502        562
  46.1701        525
  46.1900        483
  46.2099        502
  46.2298        459
  46.2497        421
  46.2695        418
  46.2894        417
  46.3093        426
  46.3292        362
  46.3491        366
  46.3690        384
  46.3889        368
  46.4087        398
  46.4286        406
  46.4485        397
  46.4684        418
  46.4883        437
  46.5082        416
  46.5280        472
  46.5479        470
  46.5678        483
  46.5877        490
  46.6076        465
  46.6275        537
  46.6474        565
  46.6672        608
  46.6871        576
  46.7070        564
  46.7269        666
  46.7468        664
  46.7667        652
  46.7865        647
  46.8064        604
  46.8263        670
  46.8462        704
  46.8661        658
  46.8860        691
  46.9059        663
  46.9257        657
  46.9456        625
  46.9655        625
  46.9854        625
  47.0053        683
  47.0252        655
  47.0451        751
  47.0649        735
  47.0848        783
  47.1047       1016
  47.1246       1084
  47.1445       1096
  47.1644       1014
  47.1842        886
  47.2041        805
  47.2240        744
  47.2439        801
  47.2638        787
  47.2837        747
  47.3036        586
  47.3234        540
  47.3433        496
  47.3632        437
  47.3831        444
  47.4030        359
  47.4229        358
  47.4428        386
  47.4626        405
  47.4825        395
  47.5024        417
  47.5223        401
  47.5422        443
  47.5621        425
  47.5819        498
  47.6018        519
  47.6217        570
  47.6416        566
  47.6615        569
  47.6814        468
  47.7013        503
  47.7211        486
  47.7410        457
  47.7609        461
  47.7808        443
  47.8007        399
  47.8206        357
  47.8404        378
  47.8603        347
  47.8802        337
  47.9001        315
  47.9200        309
  47.9399        309
  47.9598        305
  47.9796        322
  47.9995        311
  48.0194        278
  48.0393        305
  48.0592        277
  48.0791        276
  48.0990        280
  48.1188        312
  48.1387        338
  48.1586        302
  48.1785        333
  48.1984        326
  48.2183        334
  48.2381        324
  48.2580        312
  48.2779        291
  48.2978        341
  48.3177        326
  48.3376        331
  48.3575        357
  48.3773        373
  48.3972        418
  48.4171        386
  48.4370        341
  48.4569        388
  48.4768        390
  48.4967        386
  48.5165        374
  48.5364        365
  48.5563        367
  48.5762        318
  48.5961        371
  48.6160        325
  48.6358        321
  48.6557        353
  48.6756        351
  48.6955        308
  48.7154        315
  48.7353        328
  48.7552        314
  48.7750        297
  48.7949        329
  48.8148        314
  48.8347        298
  48.8546        304
  48.8745        291
  48.8943        277
  48.9142        300
  48.9341        321
  48.9540        269
  48.9739        292
  48.9938        277
  49.0137        273
  49.0335        298
  49.0534        284
  49.0733        277
  49.0932        283
  49.1131        267
  49.1330        280
  49.1529        299
  49.1727        289
  49.1926        297
  49.2125        291
  49.2324        290
  49.2523        300
  49.2722        281
  49.2920        313
  49.3119        302
  49.3318        293
  49.3517        312
  49.3716        328
  49.3915        292
  49.4114        289
  49.4312        302
  49.4511        328
  49.4710        272
  49.4909        265
  49.5108        287
  49.5307        311
  49.5506        295
  49.5704        321
  49.5903        315
  49.6102        318
  49.6301        314
  49.6500        350
  49.6699        334
  49.6897        377
  49.7096        355
  49.7295        324
  49.7494        377
  49.7693        392
  49.7892        379
  49.8091        354
  49.8289        356
  49.8488        322
  49.8687        334
  49.8886        345
  49.9085        351
  49.9284        310
  49.9482        291
  49.9681        333
  49.9880        308
  50.0079        320
  50.0278        339
  50.0477        334
  50.0676        323
  50.0874        331
  50.1073        351
  50.1272        403
  50.1471        385
  50.1670        375
  50.1869        359
  50.2068        346
  50.2266        358
  50.2465        334
  50.2664        363
  50.2863        335
  50.3062        298
  50.3261        351
  50.3459        314
  50.3658        326
  50.3857        309
  50.4056        293
  50.4255        271
  50.4454        266
  50.4653        286
  50.4851        299
  50.5050        310
  50.5249        246
  50.5448        282
  50.5647        326
  50.5846        265
  50.6045        293
  50.6243        276
  50.6442        315
  50.6641        295
  50.6840        268
  50.7039        310
  50.7238        305
  50.7436        289
  50.7635        311
  50.7834        298
  50.8033        315
  50.8232        322
  50.8431        319
  50.8630        329
  50.8828        315
  50.9027        324
  50.9226        329
  50.9425        299
  50.9624        348
  50.9823        346
  51.0021        368
  51.0220        356
  51.0419        354
  51.0618        365
  51.0817        381
  51.1016        453
  51.1215        484
  51.1413        563
  51.1612        646
  51.1811        658
  51.2010        651
  51.2209        687
  51.2408        627
  51.2607        641
  51.2805        626
  51.3004        676
  51.3203        838
  51.3402        850
  51.3601        878
  51.3800        841
  51.3998        760
  51.4197        694
  51.4396        614
  51.4595        616
  51.4794        624
  51.4993        670
  51.5192        644
  51.5390        551
  51.5589        546
  51.5788        506
  51.5987        455
  51.6186        498
  51.6385        515
  51.6584        502
  51.6782        488
  51.6981        495
  51.7180        457
  51.7379        445
  51.7578        526
  51.7777        517
  51.7975        492
  51.8174        480
  51.8373        522
  51.8572        463
  51.8771        436
  51.8970        449
  51.9169        456
  51.9367        489
  51.9566        481
  51.9765        421
  51.9964        433
  52.0163        430
  52.0362        504
  52.0560        455
  52.0759        489
  52.0958        477
  52.1157        493
  52.1356        474
  52.1555        458
  52.1754        467
  52.1952        508
  52.2151        508
  52.2350        469
  52.2549        483
  52.2748        410
  52.2947        499
  52.3146        519
  52.3344        465
  52.3543        473
  52.3742        465
  52.3941        482
  52.4140        469
  52.4339        500
  52.4537        489
  52.4736        414
  52.4935        440
  52.5134        428
  52.5333        423
  52.5532        407
  52.5731        410
  52.5929        415
  52.6128        367
  52.6327        375
  52.6526        339
  52.6725        378
  52.6924        365
  52.7123        398
  52.7321        340
  52.7520        387
  52.7719        373
  52.7918        370
  52.8117        420
  52.8316        398
  52.8514        432
  52.8713        398
  52.8912        406
  52.9111        432
  52.9310        463
  52.9509        451
  52.9708        459
  52.9906        484
  53.0105        508
  53.0304        538
  53.0503        542
  53.0702        531
  53.0901        488
  53.1099        470
  53.1298        474
  53.1497        453
  53.1696        472
  53.1895        468
  53.2094        472
  53.2293        460
  53.2491        440
  53.2690        403
  53.2889        440
  53.3088        438
  53.3287        437
  53.3486        469
  53.3685        429
  53.3883        422
  53.4082        387
  53.4281        387
  53.4480        404
  53.4679        396
  53.4878        335
  53.5076        389
  53.5275        349
  53.5474        307
  53.5673        311
  53.5872        349
  53.6071        366
  53.6270        315
  53.6468        290
  53.6667        336
  53.6866        335
  53.7065        318
  53.7264        319
  53.7463        335
  53.7661        315
  53.7860        338
  53.8059        300
  53.8258        341
  53.8457        324
  53.8656        316
  53.8855        350
  53.9053        371
  53.9252        340
  53.9451        418
  53.9650        371
  53.9849        364
  54.0048        409
  54.0247        407
  54.0445        394
  54.0644        401
  54.0843        391
  54.1042        403
  54.1241        414
  54.1440        387
  54.1638        370
  54.1837        401
  54.2036        372
  54.2235        371
  54.2434        354
  54.2633        387
  54.2832        326
  54.3030        335
  54.3229        340
  54.3428        350
  54.3627        344
  54.3826        350
  54.4025        332
  54.4224        320
  54.4422        346
  54.4621        299
  54.4820        308
  54.5019        321
  54.5218        313
  54.5417        344
  54.5615        336
  54.5814        335
  54.6013        336
  54.6212        312
  54.6411        339
  54.6610        355
  54.6809        353
  54.7007        306
  54.7206        337
  54.7405        325
  54.7604        308
  54.7803        350
  54.8002        304
  54.8200        316
  54.8399        333
  54.8598        331
  54.8797        306
  54.8996        284
  54.9195        285
  54.9394        323
  54.9592        318
  54.9791        281
  54.9990        302
  55.0189        325
  55.0388        302
  55.0587        298
  55.0786        316
  55.0984        311
  55.1183        361
  55.1382        311
  55.1581        347
  55.1780        354
  55.1979        354
  55.2177        372
  55.2376        455
  55.2575        419
  55.2774        462
  55.2973        463
  55.3172        454
  55.3371        444
  55.3569        444
  55.3768        447
  55.3967        465
  55.4166        457
  55.4365        465
  55.4564        469
  55.4763        447
  55.4961        437
  55.5160        385
  55.5359        447
  55.5558        404
  55.5757        385
  55.5956        407
  55.6154        390
  55.6353        348
  55.6552        352
  55.6751        373
  55.6950        346
  55.7149        383
  55.7348        357
  55.7546        327
  55.7745        346
  55.7944        350
  55.8143        349
  55.8342        360
  55.8541        351
  55.8739        332
  55.8938        313
  55.9137        370
  55.9336        340
  55.9535        335
  55.9734        354
  55.9933        373
  56.0131        337
  56.0330        324
  56.0529        355
  56.0728        378
  56.0927        312
  56.1126        366
  56.1325        375
  56.1523        384
  56.1722        374
  56.1921        337
  56.2120        403
  56.2319        430
  56.2518        389
  56.2716        363
  56.2915        416
  56.3114        416
  56.3313        380
  56.3512        422
  56.3711        465
  56.3910        428
  56.4108        453
  56.4307        494
  56.4506        520
  56.4705        485
  56.4904        512
  56.5103        519
  56.5302        530
  56.5500        554
  56.5699        557
  56.5898        593
  56.6097        624
  56.6296        594
  56.6495        682
  56.6693        753
  56.6892        817
  56.7091        932
  56.7290        993
  56.7489        981
  56.7688        904
  56.7887        829
  56.8085        735
  56.8284        826
  56.8483        732
  56.8682        736
  56.8881        792
  56.9080        750
  56.9278        751
  56.9477        680
  56.9676        726
  56.9875        761
  57.0074        801
  57.0273        861
  57.0472        854
  57.0670        768
  57.0869        743
  57.1068        595
  57.1267        610
  57.1466        542
  57.1665        594
  57.1864        571
  57.2062        601
  57.2261        572
  57.2460        481
  57.2659        434
  57.2858        385
  57.3057        354
  57.3255        337
  57.3454        334
  57.3653        338
  57.3852        319
  57.4051        352
  57.4250        337
  57.4449        304
  57.4647        298
  57.4846        329
  57.5045        347
  57.5244        335
  57.5443        353
  57.5642        369
  57.5841        364
  57.6039        343
  57.6238        376
  57.6437        352
  57.6636        393
  57.6835        349
  57.7034        310
  57.7232        330
  57.7431        336
  57.7630        321
  57.7829        334
  57.8028        303
  57.8227        293
  57.8426        288
  57.8624        274
  57.8823        313
  57.9022        272
  57.9221        281
  57.9420        278
  57.9619        240
  57.9817        285
  58.0016        266
  58.0215        248
  58.0414        282
  58.0613        306
  58.0812        263
  58.1011        284
  58.1209        286
  58.1408        302
  58.1607        283
  58.1806        298
  58.2005        311
  58.2204        287
  58.2403        293
  58.2601        317
  58.2800        323
  58.2999        340
  58.3198        357
  58.3397        355
  58.3596        346
  58.3794        342
  58.3993        344
  58.4192        304
  58.4391        312
  58.4590        335
  58.4789        319
  58.4988        327
  58.5186        324
  58.5385        306
  58.5584        329
  58.5783        288
  58.5982        281
  58.6181        289
  58.6380        275
  58.6578        270
  58.6777        284
  58.6976        282
  58.7175        289
  58.7374        296
  58.7573        275
  58.7771        285
  58.7970        273
  58.8169        257
  58.8368        302
  58.8567        262
  58.8766        272
  58.8965        291
  58.9163        299
  58.9362        275
  58.9561        308
  58.9760        247
  58.9959        268
  59.0158        266
  59.0356        296
  59.0555        282
  59.0754        285
  59.0953        265
  59.1152        277
  59.1351        284
  59.1550        252
  59.1748        248
  59.1947        258
  59.2146        249
  59.2345        257
  59.2544        251
  59.2743        287
  59.2942        244
  59.3140        236
  59.3339        223
  59.3538        243
  59.3737        245
  59.3936        232
  59.4135        240
  59.4333        243
  59.4532        248
  59.4731        234
  59.4930        220
  59.5129        243
  59.5328        218
  59.5527        245
  59.5725        256
  59.5924        233
  59.6123        235
  59.6322        224
  59.6521        260
  59.6720        243
  59.6918        245
  59.7117        213
  59.7316        246
  59.7515        222
  59.7714        250
  59.7913        225
  59.8112        227
  59.8310        241
  59.8509        244
  59.8708        251
  59.8907        239
  59.9106        216
  59.9305        204
  59.9504        238
  59.9702        221
  59.9901        216
  60.0100        262
  60.0299        242
  60.0498        190
  60.0697        202
  60.0895        218
  60.1094        232
  60.1293        203
  60.1492        226
  60.1691        235
  60.1890        224
  60.2089        240
  60.2287        219
  60.2486        226
  60.2685        233
  60.2884        230
  60.3083        250
  60.3282        250
  60.3481        211
  60.3679        213
  60.3878        218
  60.4077        233
  60.4276        234
  60.4475        221
  60.4674        214
  60.4872        237
  60.5071        215
  60.5270        233
  60.5469        235
  60.5668        246
  60.5867        228
  60.6066        233
  60.6264        218
  60.6463        203
  60.6662        250
  60.6861        228
  60.7060        244
  60.7259        217
  60.7457        239
  60.7656        229
  60.7855        217
  60.8054        228
  60.8253        247
  60.8452        226
  60.8651        233
  60.8849        230
  60.9048        229
  60.9247        246
  60.9446        246
  60.9645        233
  60.9844        236
  61.0043        226
  61.0241        266
  61.0440        232
  61.0639        231
  61.0838        278
  61.1037        272
  61.1236        238
  61.1434        239
  61.1633        248
  61.1832        208
  61.2031        242
  61.2230        232
  61.2429        271
  61.2628        273
  61.2826        253
  61.3025        235
  61.3224        235
  61.3423        244
  61.3622        223
  61.3821        285
  61.4020        233
  61.4218        242
  61.4417        258
  61.4616        225
  61.4815        206
  61.5014        241
  61.5213        239
  61.5411        247
  61.5610        249
  61.5809        261
  61.6008        255
  61.6207        242
  61.6406        263
  61.6605        238
  61.6803        262
  61.7002        257
  61.7201        243
  61.7400        264
  61.7599        250
  61.7798        268
  61.7996        243
  61.8195        300
  61.8394        277
  61.8593        267
  61.8792        262
  61.8991        265
  61.9190        313
  61.9388        301
  61.9587        309
  61.9786        346
  61.9985        351
  62.0184        318
  62.0383        329
  62.0582        303
  62.0780        295
  62.0979        301
  62.1178        324
  62.1377        352
  62.1576        404
  62.1775        392
  62.1973        368
  62.2172        417
  62.2371        453
  62.2570        502
  62.2769        536
  62.2968        509
  62.3167        473
  62.3365        396
  62.3564        418
  62.3763        397
  62.3962        399
  62.4161        372
  62.4360        412
  62.4559        391
  62.4757        404
  62.4956        375
  62.5155        373
  62.5354        340
  62.5553        331
  62.5752        317
  62.5950        309
  62.6149        310
  62.6348        292
  62.6547        274
  62.6746        283
  62.6945        265
  62.7144        275
  62.7342        244
  62.7541        260
  62.7740        268
  62.7939        265
  62.8138        262
  62.8337        266
  62.8535        259
  62.8734        235
  62.8933        265
  62.9132        254
  62.9331        262
  62.9530        250
  62.9729        242
  62.9927        234
  63.0126        235
  63.0325        230
  63.0524        261
  63.0723        209
  63.0922        227
  63.1121        240
  63.1319        280
  63.1518        239
  63.1717        234
  63.1916        237
  63.2115        249
  63.2314        247
  63.2512        228
  63.2711        248
  63.2910        246
  63.3109        243
  63.3308        248
  63.3507        279
  63.3706        249
  63.3904        229
  63.4103        251
  63.4302        260
  63.4501        223
  63.4700        210
  63.4899        229
  63.5098        230
  63.5296        244
  63.5495        234
  63.5694        226
  63.5893        203
  63.6092        244
  63.6291        232
  63.6489        239
  63.6688        226
  63.6887        225
  63.7086        229
  63.7285        237
  63.7484        208
  63.7683        216
  63.7881        247
  63.8080        215
  63.8279        223
  63.8478        226
  63.8677        262
  63.8876        238
  63.9074        243
  63.9273        253
  63.9472        266
  63.9671        264
  63.9870        271
  64.0069        275
  64.0268        324
  64.0466        355
  64.0665        401
  64.0864        381
  64.1063        412
  64.1262        400
  64.1461        328
  64.1660        319
  64.1858        323
  64.2057        309
  64.2256        302
  64.2455        310
  64.2654        317
  64.2853        321
  64.3051        339
  64.3250        286
  64.3449        274
  64.3648        261
  64.3847        223
  64.4046        240
  64.4245        239
  64.4443        244
  64.4642        228
  64.4841        193
  64.5040        210
  64.5239        215
  64.5438        199
  64.5637        238
  64.5835        224
  64.6034        244
  64.6233        235
  64.6432        207
  64.6631        198
  64.6830        202
  64.7028        219
  64.7227        214
  64.7426        195
  64.7625        195
  64.7824        219
  64.8023        208
  64.8222        201
  64.8420        204
  64.8619        228
  64.8818        217
  64.9017        192
  64.9216        212
  64.9415        215
  64.9613        207
  64.9812        203
  65.0011        201
  65.0210        226
  65.0409        219
  65.0608        195
  65.0807        196
  65.1005        199
  65.1204        199
  65.1403        200
  65.1602        221
  65.1801        240
  65.2000        207
  65.2199        202
  65.2397        226
  65.2596        195
  65.2795        236
  65.2994        197
  65.3193        229
  65.3392        237
  65.3590        251
  65.3789        239
  65.3988        217
  65.4187        237
  65.4386        209
  65.4585        228
  65.4784        221
  65.4982        201
  65.5181        232
  65.5380        250
  65.5579        260
  65.5778        217
  65.5977        232
  65.6176        232
  65.6374        245
  65.6573        235
  65.6772        254
  65.6971        246
  65.7170        253
  65.7369        227
  65.7567        248
  65.7766        247
  65.7965        228
  65.8164        257
  65.8363        249
  65.8562        233
  65.8761        235
  65.8959        189
  65.9158        207
  65.9357        234
  65.9556        214
  65.9755        234
  65.9954        208
  66.0152        206
  66.0351        230
  66.0550        211
  66.0749        199
  66.0948        206
  66.1147        211
  66.1346        218
  66.1544        210
  66.1743        222
  66.1942        224
  66.2141        211
  66.2340        220
  66.2539        240
  66.2738        209
  66.2936        215
  66.3135        201
  66.3334        209
  66.3533        219
  66.3732        215
  66.3931        219
  66.4129        237
  66.4328        223
  66.4527        261
  66.4726        230
  66.4925        226
  66.5124        248
  66.5323        229
  66.5521        195
  66.5720        226
  66.5919        215
  66.6118        257
  66.6317        225
  66.6516        231
  66.6714        203
  66.6913        193
  66.7112        232
  66.7311        222
  66.7510        178
  66.7709        217
  66.7908        192
  66.8106        194
  66.8305        183
  66.8504        200
  66.8703        185
  66.8902        192
  66.9101        210
  66.9300        181
  66.9498        172
  66.9697        176
  66.9896        184
  67.0095        188
  67.0294        183
  67.0493        170
  67.0691        189
  67.0890        221
  67.1089        182
  67.1288        176
  67.1487        179
  67.1686        165
  67.1885        184
  67.2083        197
  67.2282        190
  67.2481        204
  67.2680        187
  67.2879        208
  67.3078        202
  67.3277        186
  67.3475        205
  67.3674        200
  67.3873        184
  67.4072        179
  67.4271        193
  67.4470        199
  67.4668        176
  67.4867        207
  67.5066        215
  67.5265        193
  67.5464        206
  67.5663        181
  67.5862        193
  67.6060        185
  67.6259        199
  67.6458        186
  67.6657        184
  67.6856        189
  67.7055        187
  67.7253        194
  67.7452        209
  67.7651        225
  67.7850        209
  67.8049        194
  67.8248        194
  67.8447        192
  67.8645        201
  67.8844        240
  67.9043        202
  67.9242        217
  67.9441        190
  67.9640        208
  67.9839        207
  68.0037        223
  68.0236        202
  68.0435        189
  68.0634        209
  68.0833        229
  68.1032        222
  68.1230        218
  68.1429        238
  68.1628        239
  68.1827        238
  68.2026        234
  68.2225        265
  68.2424        238
  68.2622        253
  68.2821        236
  68.3020        278
  68.3219        244
  68.3418        246
  68.3617        293
  68.3816        231
  68.4014        240
  68.4213        246
  68.4412        251
  68.4611        268
  68.4810        258
  68.5009        253
  68.5207        271
  68.5406        271
  68.5605        250
  68.5804        229
  68.6003        264
  68.6202        235
  68.6401        268
  68.6599        258
  68.6798        286
  68.6997        259
  68.7196        242
  68.7395        222
  68.7594        225
  68.7792        214
  68.7991        262
  68.8190        241
  68.8389        235
  68.8588        224
  68.8787        212
  68.8986        228
  68.9184        200
  68.9383        231
  68.9582        242
  68.9781        224
  68.9980        226
  69.0179        242
  69.0378        224
  69.0576        236
  69.0775        212
  69.0974        221
  69.1173        280
  69.1372        294
  69.1571        261
  69.1769        338
  69.1968        313
  69.2167        305
  69.2366        327
  69.2565        284
  69.2764        264
  69.2963        259
  69.3161        272
  69.3360        225
  69.3559        246
  69.3758        275
  69.3957        280
  69.4156        302
  69.4355        287
  69.4553        286
  69.4752        275
  69.4951        269
  69.5150        248
  69.5349        225
  69.5548        231
  69.5746        262
  69.5945        226
  69.6144        235
  69.6343        221
  69.6542        235
  69.6741        254
  69.6940        225
  69.7138        232
  69.7337        192
  69.7536        224
  69.7735        233
  69.7934        197
  69.8133        210
  69.8331        181
  69.8530        159
  69.8729        199
  69.8928        190
  69.9127        156
  69.9326        250
  69.9525        205
  69.9723        205
  69.9922        206
  70.0121        188
  70.0320        202
  70.0519        174
  70.0718        193
  70.0917        178
  70.1115        180
  70.1314        198
  70.1513        182
  70.1712        209
  70.1911        210
  70.2110        201
  70.2308        178
  70.2507        188
  70.2706        165
  70.2905        191
  70.3104        169
  70.3303        195
  70.3502        211
  70.3700        184
  70.3899        178
  70.4098        172
  70.4297        203
  70.4496        180
  70.4695        163
  70.4894        168
  70.5092        167
  70.5291        153
  70.5490        176
  70.5689        163
  70.5888        172
  70.6087        162
  70.6285        171
  70.6484        191
  70.6683        181
  70.6882        150
  70.7081        169
  70.7280        171
  70.7479        167
  70.7677        185
  70.7876        213
  70.8075        156
  70.8274        170
  70.8473        190
  70.8672        177
  70.8870        188
  70.9069        173
  70.9268        176
  70.9467        176
  70.9666        181
  70.9865        191
  71.0064        204
  71.0262        212
  71.0461        189
  71.0660        217
  71.0859        200
  71.1058        190
  71.1257        200
  71.1456        175
  71.1654        223
  71.1853        220
  71.2052        211
  71.2251        208
  71.2450        205
  71.2649        229
  71.2847        233
  71.3046        204
  71.3245        183
  71.3444        195
  71.3643        205
  71.3842        204
  71.4041        196
  71.4239        169
  71.4438        181
  71.4637        197
  71.4836        191
  71.5035        202
  71.5234        174
  71.5433        184
  71.5631        207
  71.5830        211
  71.6029        204
  71.6228        208
  71.6427        198
  71.6626        180
  71.6824        176
  71.7023        196
  71.7222        214
  71.7421        195
  71.7620        199
  71.7819        208
  71.8018        219
  71.8216        208
  71.8415        217
  71.8614        216
  71.8813        222
  71.9012        222
  71.9211        221
  71.9409        230
  71.9608        238
  71.9807        183
  72.0006        211
  72.0205        256
  72.0404        212
  72.0603        255
  72.0801        209
  72.1000        223
  72.1199        241
  72.1398        243
  72.1597        252
  72.1796        205
  72.1995        251
  72.2193        204
  72.2392        229
  72.2591        208
  72.2790        214
  72.2989        192
  72.3188        170
  72.3386        205
  72.3585        186
  72.3784        184
  72.3983        191
  72.4182        205
  72.4381        203
  72.4580        223
  72.4778        215
  72.4977        174
  72.5176        185
  72.5375        179
  72.5574        184
  72.5773        212
  72.5971        183
  72.6170        216
  72.6369        185
  72.6568        217
  72.6767        203
  72.6966        176
  72.7165        215
  72.7363        227
  72.7562        202
  72.7761        229
  72.7960        205
  72.8159        218
  72.8358        198
  72.8557        211
  72.8755        203
  72.8954        234
  72.9153        263
  72.9352        223
  72.9551        238
  72.9750        188
  72.9948        221
  73.0147        203
  73.0346        200
  73.0545        230
  73.0744        206
  73.0943        221
  73.1142        213
  73.1340        211
  73.1539        222
  73.1738        181
  73.1937        213
  73.2136        212
  73.2335        195
  73.2534        216
  73.2732        182
  73.2931        201
  73.3130        211
  73.3329        194
  73.3528        193
  73.3727        200
  73.3925        216
  73.4124        205
  73.4323        192
  73.4522        205
  73.4721        193
  73.4920        208
  73.5119        204
  73.5317        227
  73.5516        198
  73.5715        192
  73.5914        202
  73.6113        193
  73.6312        196
  73.6510        192
  73.6709        203
  73.6908        218
  73.7107        221
  73.7306        193
  73.7505        221
  73.7704        212
  73.7902        199
  73.8101        244
  73.8300        229
  73.8499        204
  73.8698        249
  73.8897        235
  73.9096        215
  73.9294        234
  73.9493        217
  73.9692        195
  73.9891        227
  74.0090        195
  74.0289        200
  74.0487        231
  74.0686        185
  74.0885        203
  74.1084        231
  74.1283        202
  74.1482        206
  74.1681        234
  74.1879        259
  74.2078        235
  74.2277        212
  74.2476        220
  74.2675        205
  74.2874        218
  74.3073        209
  74.3271        201
  74.3470        228
  74.3669        223
  74.3868        207
  74.4067        196
  74.4266        239
  74.4464        199
  74.4663        200
  74.4862        223
  74.5061        204
  74.5260        185
  74.5459        213
  74.5658        203
  74.5856        196
  74.6055        222
  74.6254        201
  74.6453        211
  74.6652        218
  74.6851        179
  74.7049        191
  74.7248        188
  74.7447        188
  74.7646        203
  74.7845        181
  74.8044        158
  74.8243        179
  74.8441        184
  74.8640        202
  74.8839        192
  74.9038        173
  74.9237        165
  74.9436        199
  74.9635        196
  74.9833        202
  75.0032        198
  75.0231        160
  75.0430        194
  75.0629        173
  75.0828        191
  75.1026        186
  75.1225        193
  75.1424        178
  75.1623        181
  75.1822        185
  75.2021        187
  75.2220        192
  75.2418        177
  75.2617        189
  75.2816        205
  75.3015        175
  75.3214        202
  75.3413        184
  75.3612        187
  75.3810        218
  75.4009        207
  75.4208        204
  75.4407        170
  75.4606        197
  75.4805        212
  75.5003        199
  75.5202        197
  75.5401        195
  75.5600        204
  75.5799        198
  75.5998        205
  75.6197        183
  75.6395        199
  75.6594        183
  75.6793        194
  75.6992        240
  75.7191        207
  75.7390        198
  75.7588        221
  75.7787        208
  75.7986        187
  75.8185        208
  75.8384        201
  75.8583        182
  75.8782        210
  75.8980        198
  75.9179        184
  75.9378        206
  75.9577        201
  75.9776        218
  75.9975        164
  76.0174        198
  76.0372        183
  76.0571        234
  76.0770        217
  76.0969        186
  76.1168        183
  76.1367        189
  76.1565        186
  76.1764        208
  76.1963        184
  76.2162        212
  76.2361        207
  76.2560        203
  76.2759        213
  76.2957        190
  76.3156        234
  76.3355        188
  76.3554        210
  76.3753        197
  76.3952        243
  76.4151        255
  76.4349        246
  76.4548        239
  76.4747        199
  76.4946        218
  76.5145        225
  76.5344        221
  76.5542        198
  76.5741        197
  76.5940        240
  76.6139        231
  76.6338        186
  76.6537        217
  76.6736        260
  76.6934        247
  76.7133        235
  76.7332        226
  76.7531        224
  76.7730        232
  76.7929        207
  76.8127        221
  76.8326        217
  76.8525        251
  76.8724        206
  76.8923        249
  76.9122        235
  76.9321        273
  76.9519        275
  76.9718        293
  76.9917        317
  77.0116        274
  77.0315        273
  77.0514        257
  77.0713        255
  77.0911        249
  77.1110        256
  77.1309        249
  77.1508        275
  77.1707        254
  77.1906        267
  77.2104        263
  77.2303        254
  77.2502        277
  77.2701        245
  77.2900        232
  77.3099        250
  77.3298        241
  77.3496        227
  77.3695        219
  77.3894        220
  77.4093        236
  77.4292        220
  77.4491        229
  77.4690        219
  77.4888        209
  77.5087        216
  77.5286        219
  77.5485        189
  77.5684        243
  77.5883        237
  77.6081        236
  77.6280        234
  77.6479        234
  77.6678        226
  77.6877        224
  77.7076        254
  77.7275        215
  77.7473        246
  77.7672        230
  77.7871        215
  77.8070        238
  77.8269        234
  77.8468        229
  77.8666        217
  77.8865        212
  77.9064        211
  77.9263        242
  77.9462        220
  77.9661        236
  77.9860        215
  78.0058        252
  78.0257        224
  78.0456        221
  78.0655        236
  78.0854        224
  78.1053        233
  78.1252        225
  78.1450        243
  78.1649        250
  78.1848        247
  78.2047        244
  78.2246        243
  78.2445        253
  78.2643        241
  78.2842        225
  78.3041        250
  78.3240        260
  78.3439        288
  78.3638        277
  78.3837        250
  78.4035        253
  78.4234        242
  78.4433        199
  78.4632        241
  78.4831        217
  78.5030        238
  78.5229        257
  78.5427        241
  78.5626        238
  78.5825        249
  78.6024        242
  78.6223        244
  78.6422        218
  78.6620        235
  78.6819        235
  78.7018        250
  78.7217        269
  78.7416        237
  78.7615        195
  78.7814        204
  78.8012        211
  78.8211        207
  78.8410        212
  78.8609        198
  78.8808        203
  78.9007        198
  78.9205        214
  78.9404        186
  78.9603        229
  78.9802        223
  79.0001        213
  79.0200        204
  79.0399        168
  79.0597        232
  79.0796        175
  79.0995        206
  79.1194        191
  79.1393        188
  79.1592        217
  79.1791        196
  79.1989        177
  79.2188        198
  79.2387        172
  79.2586        158
  79.2785        192
  79.2984        181
  79.3182        207
  79.3381        155
  79.3580        214
  79.3779        179
  79.3978        197
  79.4177        171
  79.4376        179
  79.4574        180
  79.4773        173
  79.4972        189
  79.5171        197
  79.5370        191
  79.5569        182
  79.5767        172
  79.5966        172
  79.6165        173
  79.6364        172
  79.6563        211
  79.6762        172
  79.6961        173
  79.7159        183
  79.7358        168
  79.7557        170
  79.7756        169
  79.7955        185
  79.8154        180
  79.8353        186
  79.8551        170
  79.8750        185
  79.8949        167
  79.9148        170
  79.9347        174
  79.9546        194
  79.9744        180
  79.9943        162
