TITLE	
DATA TYPE	
ORIGIN	JASCO
OWNER	
DATE	19/08/31
TIME	13:31:28
SPECTROMETER/DATA SYSTEM	JASCO Corp., V-570, Rev. 1.00
RESOLUTION	
DELTAX	-1
XUNITS	NANOMETERS
YUNITS	ABSORBANCE
FIRSTX	840.0000
LASTX	190.0000
NPOINTS	651
FIRSTY	0.00556
MAXY	1.00975
MINY	0.00496
XYDATA
840.0000	0.00556
839.0000	0.00551
838.0000	0.00534
837.0000	0.00525
836.0000	0.00513
835.0000	0.00512
834.0000	0.005
833.0000	0.00503
832.0000	0.00505
831.0000	0.00513
830.0000	0.00508
829.0000	0.00515
828.0000	0.00511
827.0000	0.00517
826.0000	0.00519
825.0000	0.00522
824.0000	0.00521
823.0000	0.00518
822.0000	0.0051
821.0000	0.00505
820.0000	0.00499
819.0000	0.00496
818.0000	0.005
817.0000	0.00501
816.0000	0.00498
815.0000	0.0051
814.0000	0.00503
813.0000	0.00503
812.0000	0.00503
811.0000	0.00506
810.0000	0.0051
809.0000	0.00519
808.0000	0.00531
807.0000	0.00533
806.0000	0.00546
805.0000	0.00545
804.0000	0.00539
803.0000	0.00541
802.0000	0.00541
801.0000	0.00547
800.0000	0.00541
799.0000	0.00541
798.0000	0.0055
797.0000	0.00555
796.0000	0.0055
795.0000	0.00543
794.0000	0.00544
793.0000	0.00557
792.0000	0.00555
791.0000	0.00563
790.0000	0.00553
789.0000	0.00559
788.0000	0.00554
787.0000	0.00562
786.0000	0.00567
785.0000	0.00579
784.0000	0.0059
783.0000	0.00594
782.0000	0.006
781.0000	0.00601
780.0000	0.00605
779.0000	0.00606
778.0000	0.00611
777.0000	0.00612
776.0000	0.00615
775.0000	0.00608
774.0000	0.00613
773.0000	0.00614
772.0000	0.00619
771.0000	0.00621
770.0000	0.00615
769.0000	0.00612
768.0000	0.00613
767.0000	0.00626
766.0000	0.00632
765.0000	0.00641
764.0000	0.00645
763.0000	0.00654
762.0000	0.00657
761.0000	0.00659
760.0000	0.00675
759.0000	0.0068
758.0000	0.00691
757.0000	0.00695
756.0000	0.00708
755.0000	0.00713
754.0000	0.00724
753.0000	0.00739
752.0000	0.00749
751.0000	0.00761
750.0000	0.00763
749.0000	0.00775
748.0000	0.00784
747.0000	0.00799
746.0000	0.00808
745.0000	0.00816
744.0000	0.00832
743.0000	0.00852
742.0000	0.00878
741.0000	0.00887
740.0000	0.0091
739.0000	0.0093
738.0000	0.00954
737.0000	0.00979
736.0000	0.01004
735.0000	0.01029
734.0000	0.01059
733.0000	0.01099
732.0000	0.01131
731.0000	0.01168
730.0000	0.01204
729.0000	0.01244
728.0000	0.01284
727.0000	0.01331
726.0000	0.01383
725.0000	0.01445
724.0000	0.01509
723.0000	0.01576
722.0000	0.01656
721.0000	0.01739
720.0000	0.01832
719.0000	0.01931
718.0000	0.02047
717.0000	0.02178
716.0000	0.02315
715.0000	0.02474
714.0000	0.02652
713.0000	0.02849
712.0000	0.03061
711.0000	0.03295
710.0000	0.03554
709.0000	0.03846
708.0000	0.04176
707.0000	0.04542
706.0000	0.04955
705.0000	0.05411
704.0000	0.05937
703.0000	0.06525
702.0000	0.07181
701.0000	0.07901
700.0000	0.08709
699.0000	0.09622
698.0000	0.10637
697.0000	0.11769
696.0000	0.13017
695.0000	0.14402
694.0000	0.15945
693.0000	0.1764
692.0000	0.19516
691.0000	0.21578
690.0000	0.23843
689.0000	0.26316
688.0000	0.29003
687.0000	0.31919
686.0000	0.35064
685.0000	0.38439
684.0000	0.42025
683.0000	0.45808
682.0000	0.49756
681.0000	0.53864
680.0000	0.58096
679.0000	0.62403
678.0000	0.66716
677.0000	0.70954
676.0000	0.75065
675.0000	0.79012
674.0000	0.82745
673.0000	0.862
672.0000	0.89343
671.0000	0.92127
670.0000	0.94531
669.0000	0.96546
668.0000	0.98159
667.0000	0.99391
666.0000	1.00251
665.0000	1.00768
664.0000	1.00975
663.0000	1.00912
662.0000	1.00604
661.0000	1.00076
660.0000	0.9936
659.0000	0.98497
658.0000	0.97506
657.0000	0.96397
656.0000	0.95193
655.0000	0.93903
654.0000	0.92538
653.0000	0.911
652.0000	0.89585
651.0000	0.88015
650.0000	0.86381
649.0000	0.8472
648.0000	0.83029
647.0000	0.81317
646.0000	0.79599
645.0000	0.77872
644.0000	0.76172
643.0000	0.74505
642.0000	0.72882
641.0000	0.71301
640.0000	0.69785
639.0000	0.6834
638.0000	0.66978
637.0000	0.65696
636.0000	0.64482
635.0000	0.63357
634.0000	0.62314
633.0000	0.61363
632.0000	0.60503
631.0000	0.59726
630.0000	0.59027
629.0000	0.58412
628.0000	0.57872
627.0000	0.57417
626.0000	0.5703
625.0000	0.56708
624.0000	0.56443
623.0000	0.5622
622.0000	0.5604
621.0000	0.55898
620.0000	0.55779
619.0000	0.55667
618.0000	0.55557
617.0000	0.55426
616.0000	0.55263
615.0000	0.55063
614.0000	0.54817
613.0000	0.54508
612.0000	0.54127
611.0000	0.53667
610.0000	0.5313
609.0000	0.52508
608.0000	0.51804
607.0000	0.51022
606.0000	0.50165
605.0000	0.49232
604.0000	0.48221
603.0000	0.47158
602.0000	0.46047
601.0000	0.44902
600.0000	0.43723
599.0000	0.42526
598.0000	0.41313
597.0000	0.40099
596.0000	0.38889
595.0000	0.37688
594.0000	0.36505
593.0000	0.35332
592.0000	0.34187
591.0000	0.33069
590.0000	0.3198
589.0000	0.30923
588.0000	0.29895
587.0000	0.28902
586.0000	0.27942
585.0000	0.27014
584.0000	0.26115
583.0000	0.25251
582.0000	0.24424
581.0000	0.23633
580.0000	0.22878
579.0000	0.22158
578.0000	0.2147
577.0000	0.2082
576.0000	0.20193
575.0000	0.19602
574.0000	0.1903
573.0000	0.18484
572.0000	0.17961
571.0000	0.17455
570.0000	0.16968
569.0000	0.16499
568.0000	0.16048
567.0000	0.15614
566.0000	0.15188
565.0000	0.14777
564.0000	0.14381
563.0000	0.13997
562.0000	0.13617
561.0000	0.13245
560.0000	0.12874
559.0000	0.12513
558.0000	0.1215
557.0000	0.11793
556.0000	0.11438
555.0000	0.11098
554.0000	0.10764
553.0000	0.10439
552.0000	0.10122
551.0000	0.09814
550.0000	0.09513
549.0000	0.09229
548.0000	0.08944
547.0000	0.08669
546.0000	0.08399
545.0000	0.08147
544.0000	0.07908
543.0000	0.07683
542.0000	0.07462
541.0000	0.07251
540.0000	0.07056
539.0000	0.0688
538.0000	0.0671
537.0000	0.06544
536.0000	0.06385
535.0000	0.06223
534.0000	0.06081
533.0000	0.05949
532.0000	0.05833
531.0000	0.05719
530.0000	0.05611
529.0000	0.05519
528.0000	0.0543
527.0000	0.05343
526.0000	0.0526
525.0000	0.05185
524.0000	0.05115
523.0000	0.05048
522.0000	0.04989
521.0000	0.04941
520.0000	0.04884
519.0000	0.04852
518.0000	0.04832
517.0000	0.04808
516.0000	0.04785
515.0000	0.04763
514.0000	0.04743
513.0000	0.04717
512.0000	0.04705
511.0000	0.04697
510.0000	0.04694
509.0000	0.04697
508.0000	0.04691
507.0000	0.0469
506.0000	0.04685
505.0000	0.0468
504.0000	0.04673
503.0000	0.0466
502.0000	0.04647
501.0000	0.04634
500.0000	0.04621
499.0000	0.04607
498.0000	0.0459
497.0000	0.04563
496.0000	0.04538
495.0000	0.04505
494.0000	0.04467
493.0000	0.04426
492.0000	0.04383
491.0000	0.0434
490.0000	0.04299
489.0000	0.0425
488.0000	0.04204
487.0000	0.04148
486.0000	0.04095
485.0000	0.04033
484.0000	0.03974
483.0000	0.03913
482.0000	0.03855
481.0000	0.03794
480.0000	0.03741
479.0000	0.03683
478.0000	0.03622
477.0000	0.03555
476.0000	0.03493
475.0000	0.0343
474.0000	0.03375
473.0000	0.03325
472.0000	0.03273
471.0000	0.0322
470.0000	0.03159
469.0000	0.03098
468.0000	0.03042
467.0000	0.02988
466.0000	0.02934
465.0000	0.0288
464.0000	0.02829
463.0000	0.02778
462.0000	0.02726
461.0000	0.02677
460.0000	0.0262
459.0000	0.02567
458.0000	0.02512
457.0000	0.0246
456.0000	0.0241
455.0000	0.02359
454.0000	0.02303
453.0000	0.02245
452.0000	0.02197
451.0000	0.02152
450.0000	0.02097
449.0000	0.02049
448.0000	0.02002
447.0000	0.01963
446.0000	0.01914
445.0000	0.0187
444.0000	0.01825
443.0000	0.01782
442.0000	0.01744
441.0000	0.0171
440.0000	0.01672
439.0000	0.01639
438.0000	0.01599
437.0000	0.01562
436.0000	0.01526
435.0000	0.01497
434.0000	0.01478
433.0000	0.0145
432.0000	0.01423
431.0000	0.01396
430.0000	0.01369
429.0000	0.01346
428.0000	0.0132
427.0000	0.01304
426.0000	0.01291
425.0000	0.01281
424.0000	0.01261
423.0000	0.01243
422.0000	0.01226
421.0000	0.01215
420.0000	0.01207
419.0000	0.01209
418.0000	0.01209
417.0000	0.01217
416.0000	0.01226
415.0000	0.01242
414.0000	0.01261
413.0000	0.01284
412.0000	0.01314
411.0000	0.01356
410.0000	0.01411
409.0000	0.01459
408.0000	0.01516
407.0000	0.01574
406.0000	0.01646
405.0000	0.01712
404.0000	0.01783
403.0000	0.01852
402.0000	0.01913
401.0000	0.01983
400.0000	0.02055
399.0000	0.02128
398.0000	0.02174
397.0000	0.02204
396.0000	0.02215
395.0000	0.02234
394.0000	0.02258
393.0000	0.02269
392.0000	0.02269
391.0000	0.02267
390.0000	0.02262
389.0000	0.02259
388.0000	0.0225
387.0000	0.02232
386.0000	0.022
385.0000	0.0218
384.0000	0.02164
383.0000	0.02161
382.0000	0.02147
381.0000	0.02135
380.0000	0.02124
379.0000	0.0212
378.0000	0.02128
377.0000	0.02131
376.0000	0.02129
375.0000	0.02132
374.0000	0.02138
373.0000	0.02133
372.0000	0.02127
371.0000	0.02132
370.0000	0.02149
369.0000	0.02159
368.0000	0.02173
367.0000	0.02204
366.0000	0.02225
365.0000	0.02255
364.0000	0.02291
363.0000	0.02345
362.0000	0.02397
361.0000	0.02451
360.0000	0.02525
359.0000	0.02592
358.0000	0.02681
357.0000	0.02762
356.0000	0.02855
355.0000	0.02956
354.0000	0.03065
353.0000	0.03186
352.0000	0.03296
351.0000	0.03421
350.0000	0.03538
349.0000	0.03685
348.0000	0.03836
347.0000	0.04014
346.0000	0.042
345.0000	0.04413
344.0000	0.04664
343.0000	0.04929
342.0000	0.0524
341.0000	0.0559
340.0000	0.06115
339.0000	0.06478
338.0000	0.06886
337.0000	0.07395
336.0000	0.07942
335.0000	0.08511
334.0000	0.09087
333.0000	0.09622
332.0000	0.10148
331.0000	0.10628
330.0000	0.11082
329.0000	0.11463
328.0000	0.11771
327.0000	0.12047
326.0000	0.12225
325.0000	0.12393
324.0000	0.12565
323.0000	0.12716
322.0000	0.12859
321.0000	0.13027
320.0000	0.13223
319.0000	0.13453
318.0000	0.13684
317.0000	0.13954
316.0000	0.14278
315.0000	0.1464
314.0000	0.15072
313.0000	0.15614
312.0000	0.16278
311.0000	0.17092
310.0000	0.18097
309.0000	0.19353
308.0000	0.20861
307.0000	0.22636
306.0000	0.2466
305.0000	0.26908
304.0000	0.29365
303.0000	0.32035
302.0000	0.34859
301.0000	0.37815
300.0000	0.40834
299.0000	0.43847
298.0000	0.4676
297.0000	0.49456
296.0000	0.51875
295.0000	0.53901
294.0000	0.55425
293.0000	0.5636
292.0000	0.5664
291.0000	0.56281
290.0000	0.55318
289.0000	0.53895
288.0000	0.52153
287.0000	0.50205
286.0000	0.48181
285.0000	0.46127
284.0000	0.44109
283.0000	0.42133
282.0000	0.40186
281.0000	0.38294
280.0000	0.36449
279.0000	0.34676
278.0000	0.32968
277.0000	0.31361
276.0000	0.29875
275.0000	0.28516
274.0000	0.27297
273.0000	0.26176
272.0000	0.2516
271.0000	0.24206
270.0000	0.23269
269.0000	0.22359
268.0000	0.21452
267.0000	0.20596
266.0000	0.19775
265.0000	0.19068
264.0000	0.18487
263.0000	0.18034
262.0000	0.17702
261.0000	0.17512
260.0000	0.17441
259.0000	0.17512
258.0000	0.17696
257.0000	0.18025
256.0000	0.18497
255.0000	0.19118
254.0000	0.1991
253.0000	0.20875
252.0000	0.21995
251.0000	0.23206
250.0000	0.24461
249.0000	0.25591
248.0000	0.26489
247.0000	0.2703
246.0000	0.27187
245.0000	0.26976
244.0000	0.26461
243.0000	0.25702
242.0000	0.24797
241.0000	0.23797
240.0000	0.2278
239.0000	0.21752
238.0000	0.2077
237.0000	0.19837
236.0000	0.18987
235.0000	0.18257
234.0000	0.17622
233.0000	0.17126
232.0000	0.1674
231.0000	0.16459
230.0000	0.16285
229.0000	0.16158
228.0000	0.1611
227.0000	0.16071
226.0000	0.16064
225.0000	0.16084
224.0000	0.16157
223.0000	0.16298
222.0000	0.16512
221.0000	0.16786
220.0000	0.17103
219.0000	0.17476
218.0000	0.17887
217.0000	0.18308
216.0000	0.18752
215.0000	0.19206
214.0000	0.19685
213.0000	0.20164
212.0000	0.20715
211.0000	0.21262
210.0000	0.21854
209.0000	0.22449
208.0000	0.23093
207.0000	0.23743
206.0000	0.24449
205.0000	0.25184
204.0000	0.25942
203.0000	0.26735
202.0000	0.27463
201.0000	0.282
200.0000	0.28934
199.0000	0.29593
198.0000	0.30195
197.0000	0.30777
196.0000	0.3135
195.0000	0.31931
194.0000	0.32328
193.0000	0.32697
192.0000	0.32695
191.0000	0.32494
190.0000	0.31135
