TITLE	
DATA TYPE	
ORIGIN	JASCO
OWNER	
DATE	19/08/31
TIME	14:39:45
SPECTROMETER/DATA SYSTEM	JASCO Corp., V-570, Rev. 1.00
RESOLUTION	
DELTAX	-1
XUNITS	NANOMETERS
YUNITS	ABSORBANCE
FIRSTX	840.0000
LASTX	190.0000
NPOINTS	651
FIRSTY	0.00268
MAXY	0.29949
MINY	0.00249
XYDATA
840.0000	0.00268
839.0000	0.00273
838.0000	0.00268
837.0000	0.00261
836.0000	0.00252
835.0000	0.00249
834.0000	0.00256
833.0000	0.00268
832.0000	0.00279
831.0000	0.00291
830.0000	0.00283
829.0000	0.00295
828.0000	0.0029
827.0000	0.00302
826.0000	0.00304
825.0000	0.00308
824.0000	0.00301
823.0000	0.00308
822.0000	0.00297
821.0000	0.00301
820.0000	0.00297
819.0000	0.00296
818.0000	0.00303
817.0000	0.00304
816.0000	0.00306
815.0000	0.00319
814.0000	0.00323
813.0000	0.00306
812.0000	0.0031
811.0000	0.00304
810.0000	0.00308
809.0000	0.0032
808.0000	0.00332
807.0000	0.00333
806.0000	0.0034
805.0000	0.00343
804.0000	0.00343
803.0000	0.00348
802.0000	0.00334
801.0000	0.00343
800.0000	0.00348
799.0000	0.00355
798.0000	0.0035
797.0000	0.00347
796.0000	0.00343
795.0000	0.00338
794.0000	0.0034
793.0000	0.00336
792.0000	0.00332
791.0000	0.00334
790.0000	0.00346
789.0000	0.00351
788.0000	0.0035
787.0000	0.00338
786.0000	0.00342
785.0000	0.00347
784.0000	0.00354
783.0000	0.00358
782.0000	0.00357
781.0000	0.00363
780.0000	0.00368
779.0000	0.0037
778.0000	0.00372
777.0000	0.00368
776.0000	0.00354
775.0000	0.00347
774.0000	0.00346
773.0000	0.00362
772.0000	0.00372
771.0000	0.00365
770.0000	0.00351
769.0000	0.00341
768.0000	0.00343
767.0000	0.00355
766.0000	0.00355
765.0000	0.00365
764.0000	0.00357
763.0000	0.00363
762.0000	0.00365
761.0000	0.0036
760.0000	0.00361
759.0000	0.00358
758.0000	0.00363
757.0000	0.00365
756.0000	0.00368
755.0000	0.00364
754.0000	0.00364
753.0000	0.00366
752.0000	0.00367
751.0000	0.00377
750.0000	0.00377
749.0000	0.00373
748.0000	0.00358
747.0000	0.00367
746.0000	0.00364
745.0000	0.0036
744.0000	0.00353
743.0000	0.00356
742.0000	0.00365
741.0000	0.00368
740.0000	0.00359
739.0000	0.00359
738.0000	0.00358
737.0000	0.00362
736.0000	0.00366
735.0000	0.00365
734.0000	0.00364
733.0000	0.00376
732.0000	0.00383
731.0000	0.00388
730.0000	0.00383
729.0000	0.00377
728.0000	0.00377
727.0000	0.00378
726.0000	0.00382
725.0000	0.00383
724.0000	0.00387
723.0000	0.0039
722.0000	0.00399
721.0000	0.00414
720.0000	0.00424
719.0000	0.00431
718.0000	0.00441
717.0000	0.00454
716.0000	0.00469
715.0000	0.00489
714.0000	0.00506
713.0000	0.00519
712.0000	0.00537
711.0000	0.00552
710.0000	0.00581
709.0000	0.00599
708.0000	0.00627
707.0000	0.0065
706.0000	0.00681
705.0000	0.0072
704.0000	0.00768
703.0000	0.00822
702.0000	0.00876
701.0000	0.00934
700.0000	0.01004
699.0000	0.0109
698.0000	0.01175
697.0000	0.01274
696.0000	0.01372
695.0000	0.01489
694.0000	0.01619
693.0000	0.01758
692.0000	0.01913
691.0000	0.02081
690.0000	0.02269
689.0000	0.02475
688.0000	0.02705
687.0000	0.02956
686.0000	0.03222
685.0000	0.03515
684.0000	0.03832
683.0000	0.04169
682.0000	0.04523
681.0000	0.04893
680.0000	0.05274
679.0000	0.05668
678.0000	0.06062
677.0000	0.0647
676.0000	0.06863
675.0000	0.07256
674.0000	0.07638
673.0000	0.08009
672.0000	0.08368
671.0000	0.08713
670.0000	0.0904
669.0000	0.09347
668.0000	0.09638
667.0000	0.09902
666.0000	0.10152
665.0000	0.1038
664.0000	0.10597
663.0000	0.10788
662.0000	0.10964
661.0000	0.11126
660.0000	0.11268
659.0000	0.11392
658.0000	0.1149
657.0000	0.11572
656.0000	0.11638
655.0000	0.11686
654.0000	0.11708
653.0000	0.11712
652.0000	0.11699
651.0000	0.11666
650.0000	0.11625
649.0000	0.11571
648.0000	0.11506
647.0000	0.11423
646.0000	0.11342
645.0000	0.11242
644.0000	0.11137
643.0000	0.11022
642.0000	0.10901
641.0000	0.10783
640.0000	0.10657
639.0000	0.10535
638.0000	0.10404
637.0000	0.10274
636.0000	0.10142
635.0000	0.10009
634.0000	0.09887
633.0000	0.09765
632.0000	0.09653
631.0000	0.09528
630.0000	0.09411
629.0000	0.09298
628.0000	0.09191
627.0000	0.09089
626.0000	0.08984
625.0000	0.08883
624.0000	0.08785
623.0000	0.08692
622.0000	0.08599
621.0000	0.08515
620.0000	0.08432
619.0000	0.08349
618.0000	0.08272
617.0000	0.08193
616.0000	0.08121
615.0000	0.08047
614.0000	0.07973
613.0000	0.0789
612.0000	0.07807
611.0000	0.0772
610.0000	0.07634
609.0000	0.07539
608.0000	0.07443
607.0000	0.07344
606.0000	0.07248
605.0000	0.07151
604.0000	0.07039
603.0000	0.06926
602.0000	0.06806
601.0000	0.06697
600.0000	0.06586
599.0000	0.06472
598.0000	0.06351
597.0000	0.06222
596.0000	0.06096
595.0000	0.0597
594.0000	0.05844
593.0000	0.05718
592.0000	0.05588
591.0000	0.05461
590.0000	0.05341
589.0000	0.05223
588.0000	0.05111
587.0000	0.04995
586.0000	0.04879
585.0000	0.04763
584.0000	0.04646
583.0000	0.04529
582.0000	0.04418
581.0000	0.04307
580.0000	0.04198
579.0000	0.041
578.0000	0.04005
577.0000	0.0392
576.0000	0.03826
575.0000	0.03739
574.0000	0.03648
573.0000	0.03569
572.0000	0.03498
571.0000	0.03421
570.0000	0.03341
569.0000	0.03254
568.0000	0.03183
567.0000	0.03115
566.0000	0.03048
565.0000	0.02978
564.0000	0.02917
563.0000	0.0286
562.0000	0.02805
561.0000	0.02756
560.0000	0.02699
559.0000	0.02645
558.0000	0.02589
557.0000	0.02535
556.0000	0.02484
555.0000	0.02434
554.0000	0.02389
553.0000	0.02342
552.0000	0.02301
551.0000	0.02261
550.0000	0.02222
549.0000	0.02187
548.0000	0.02146
547.0000	0.02107
546.0000	0.02067
545.0000	0.02032
544.0000	0.02005
543.0000	0.01969
542.0000	0.01937
541.0000	0.01906
540.0000	0.0188
539.0000	0.01861
538.0000	0.01839
537.0000	0.01814
536.0000	0.01792
535.0000	0.01759
534.0000	0.01737
533.0000	0.01715
532.0000	0.01702
531.0000	0.01686
530.0000	0.01669
529.0000	0.01661
528.0000	0.01654
527.0000	0.01643
526.0000	0.01626
525.0000	0.01612
524.0000	0.01594
523.0000	0.01578
522.0000	0.01566
521.0000	0.01555
520.0000	0.01559
519.0000	0.01557
518.0000	0.01561
517.0000	0.01556
516.0000	0.01547
515.0000	0.01535
514.0000	0.01532
513.0000	0.0152
512.0000	0.01519
511.0000	0.01511
510.0000	0.01514
509.0000	0.01518
508.0000	0.01519
507.0000	0.01516
506.0000	0.01513
505.0000	0.01508
504.0000	0.01506
503.0000	0.01499
502.0000	0.01492
501.0000	0.0149
500.0000	0.01485
499.0000	0.01486
498.0000	0.01495
497.0000	0.01493
496.0000	0.01493
495.0000	0.01484
494.0000	0.01475
493.0000	0.01464
492.0000	0.01458
491.0000	0.01456
490.0000	0.0146
489.0000	0.01454
488.0000	0.0145
487.0000	0.01449
486.0000	0.01445
485.0000	0.01436
484.0000	0.01418
483.0000	0.01406
482.0000	0.01395
481.0000	0.01393
480.0000	0.01389
479.0000	0.01383
478.0000	0.01374
477.0000	0.01359
476.0000	0.01352
475.0000	0.01343
474.0000	0.01339
473.0000	0.01333
472.0000	0.0132
471.0000	0.01317
470.0000	0.01307
469.0000	0.01297
468.0000	0.01284
467.0000	0.01268
466.0000	0.01254
465.0000	0.01245
464.0000	0.01244
463.0000	0.01243
462.0000	0.01236
461.0000	0.01229
460.0000	0.01216
459.0000	0.01202
458.0000	0.01194
457.0000	0.01182
456.0000	0.01173
455.0000	0.01164
454.0000	0.01151
453.0000	0.01146
452.0000	0.01141
451.0000	0.01139
450.0000	0.01123
449.0000	0.01109
448.0000	0.01104
447.0000	0.01106
446.0000	0.01102
445.0000	0.011
444.0000	0.01082
443.0000	0.01077
442.0000	0.01067
441.0000	0.0107
440.0000	0.01067
439.0000	0.01058
438.0000	0.01047
437.0000	0.01035
436.0000	0.01026
435.0000	0.01023
434.0000	0.01026
433.0000	0.01026
432.0000	0.0102
431.0000	0.01013
430.0000	0.01004
429.0000	0.00998
428.0000	0.00993
427.0000	0.00987
426.0000	0.0099
425.0000	0.00991
424.0000	0.00986
423.0000	0.00974
422.0000	0.00975
421.0000	0.0097
420.0000	0.00982
419.0000	0.00987
418.0000	0.00994
417.0000	0.00989
416.0000	0.00999
415.0000	0.01007
414.0000	0.01013
413.0000	0.01022
412.0000	0.01026
411.0000	0.01029
410.0000	0.01035
409.0000	0.01043
408.0000	0.01045
407.0000	0.01056
406.0000	0.01062
405.0000	0.01068
404.0000	0.01088
403.0000	0.01102
402.0000	0.01115
401.0000	0.01122
400.0000	0.01149
399.0000	0.01178
398.0000	0.01197
397.0000	0.01203
396.0000	0.01202
395.0000	0.01213
394.0000	0.01228
393.0000	0.01247
392.0000	0.01252
391.0000	0.01263
390.0000	0.01279
389.0000	0.01294
388.0000	0.01313
387.0000	0.01324
386.0000	0.01333
385.0000	0.01349
384.0000	0.0137
383.0000	0.01385
382.0000	0.01393
381.0000	0.01404
380.0000	0.01422
379.0000	0.01446
378.0000	0.01474
377.0000	0.01493
376.0000	0.01512
375.0000	0.01534
374.0000	0.01559
373.0000	0.01578
372.0000	0.01599
371.0000	0.01617
370.0000	0.01672
369.0000	0.01707
368.0000	0.01742
367.0000	0.01777
366.0000	0.01809
365.0000	0.01847
364.0000	0.0189
363.0000	0.01931
362.0000	0.01974
361.0000	0.02007
360.0000	0.02054
359.0000	0.02095
358.0000	0.0216
357.0000	0.02209
356.0000	0.0226
355.0000	0.02314
354.0000	0.02379
353.0000	0.02451
352.0000	0.0251
351.0000	0.02579
350.0000	0.02659
349.0000	0.02754
348.0000	0.02852
347.0000	0.02939
346.0000	0.03041
345.0000	0.03142
344.0000	0.03245
343.0000	0.03353
342.0000	0.0347
341.0000	0.03604
340.0000	0.03768
339.0000	0.03881
338.0000	0.04003
337.0000	0.04122
336.0000	0.04265
335.0000	0.04404
334.0000	0.04549
333.0000	0.0468
332.0000	0.04811
331.0000	0.04937
330.0000	0.05065
329.0000	0.05167
328.0000	0.0529
327.0000	0.05404
326.0000	0.05493
325.0000	0.0556
324.0000	0.05649
323.0000	0.05715
322.0000	0.05771
321.0000	0.05845
320.0000	0.05921
319.0000	0.05999
318.0000	0.06071
317.0000	0.06124
316.0000	0.06186
315.0000	0.06255
314.0000	0.06332
313.0000	0.06418
312.0000	0.06506
311.0000	0.06628
310.0000	0.06744
309.0000	0.06908
308.0000	0.0708
307.0000	0.07317
306.0000	0.07578
305.0000	0.07859
304.0000	0.0817
303.0000	0.0851
302.0000	0.08878
301.0000	0.09273
300.0000	0.09682
299.0000	0.10092
298.0000	0.1051
297.0000	0.10895
296.0000	0.11291
295.0000	0.11646
294.0000	0.11944
293.0000	0.1217
292.0000	0.12311
291.0000	0.12386
290.0000	0.12382
289.0000	0.12316
288.0000	0.12189
287.0000	0.12022
286.0000	0.11805
285.0000	0.11576
284.0000	0.11361
283.0000	0.11161
282.0000	0.10949
281.0000	0.10735
280.0000	0.10552
279.0000	0.10387
278.0000	0.10228
277.0000	0.10052
276.0000	0.09896
275.0000	0.0975
274.0000	0.09638
273.0000	0.0954
272.0000	0.09455
271.0000	0.09385
270.0000	0.09321
269.0000	0.0927
268.0000	0.09208
267.0000	0.0915
266.0000	0.09093
265.0000	0.09049
264.0000	0.09029
263.0000	0.09014
262.0000	0.09016
261.0000	0.0903
260.0000	0.09038
259.0000	0.09063
258.0000	0.09107
257.0000	0.09183
256.0000	0.09269
255.0000	0.09355
254.0000	0.09462
253.0000	0.09596
252.0000	0.09761
251.0000	0.09932
250.0000	0.10109
249.0000	0.10281
248.0000	0.10447
247.0000	0.10584
246.0000	0.10703
245.0000	0.10785
244.0000	0.10832
243.0000	0.10849
242.0000	0.10845
241.0000	0.10841
240.0000	0.1085
239.0000	0.10861
238.0000	0.10884
237.0000	0.1092
236.0000	0.10985
235.0000	0.11101
234.0000	0.11247
233.0000	0.11437
232.0000	0.11662
231.0000	0.11921
230.0000	0.12229
229.0000	0.12584
228.0000	0.1301
227.0000	0.13468
226.0000	0.13994
225.0000	0.14539
224.0000	0.15135
223.0000	0.15757
222.0000	0.16432
221.0000	0.17133
220.0000	0.17873
219.0000	0.18675
218.0000	0.19516
217.0000	0.20334
216.0000	0.21158
215.0000	0.2196
214.0000	0.2277
213.0000	0.23556
212.0000	0.24342
211.0000	0.25095
210.0000	0.25783
209.0000	0.26425
208.0000	0.2701
207.0000	0.27528
206.0000	0.28022
205.0000	0.28467
204.0000	0.28875
203.0000	0.29195
202.0000	0.29465
201.0000	0.29674
200.0000	0.29829
199.0000	0.29903
198.0000	0.29933
197.0000	0.29949
196.0000	0.29926
195.0000	0.29799
194.0000	0.29628
193.0000	0.29301
192.0000	0.28756
191.0000	0.27582
190.0000	0.25437
